
Filename:
	C:\Program Files\Thermo Electron\WinXRD\Datafiles\F_HERMAN\FIEN\10_1_AUG_P_RT.raw

File Created:
	January 23, 2019 - 03:43 PM

Specimen Id:
	10.1 AUG SUPPORT P FT

Specimen Name:
	

Specimen Description:
	

Comment:
Scan Type: 2Theta Scan
Start Angle: 1 deg.
Stop Angle: 65 deg.
Num Points: 3201
Step Size: 0.02 deg.
Scan Rate: 1.000000
Scan Mode: Continuous
Wavelength: 1.540562
\Kalpha1: 1.540562	\Kalpha2: 1.544390	\Kbeta: 1.392218

Optics:
		Detector:
			 Type: Fixed Slits
		Tube: 
			 Type: Fixed Slits


Datas:
 Pos [deg]       Rate [CPS]      ESD [-]

Range 1 ---> Iteration 1
   1.000        887.50	    32.634
   1.020        577.50	    26.325
   1.040        530.83	    25.239
   1.060        606.67	    26.981
   1.080        515.83	    24.880
   1.100        443.33	    23.065
   1.120        448.33	    23.195
   1.140        489.17	    24.228
   1.160        505.83	    24.637
   1.180        437.50	    22.913
   1.200        385.00	    21.494
   1.220        375.00	    21.213
   1.240        353.33	    20.591
   1.260        398.33	    21.863
   1.280        515.00	    24.860
   1.300        592.50	    26.665
   1.320        742.50	    29.850
   1.340        810.00	    31.177
   1.360       1071.67	    35.861
   1.380       1265.00	    38.962
   1.400       1306.67	    39.598
   1.420       1344.17	    40.162
   1.440       1302.50	    39.535
   1.460       1246.67	    38.678
   1.480       1169.17	    37.457
   1.500       1167.50	    37.430
   1.520       1119.17	    36.647
   1.540       1095.00	    36.249
   1.560       1075.83	    35.930
   1.580       1045.83	    35.426
   1.600       1055.00	    35.581
   1.620       1003.33	    34.699
   1.640        951.67	    33.793
   1.660        762.50	    30.249
   1.680        800.83	    31.000
   1.700        766.67	    30.332
   1.720        669.17	    28.337
   1.740        630.00	    27.495
   1.760        665.83	    28.267
   1.780        602.50	    26.889
   1.800        564.17	    26.019
   1.820        573.33	    26.230
   1.840        504.17	    24.597
   1.860        539.17	    25.436
   1.880        523.33	    25.060
   1.900        480.00	    24.000
   1.920        459.17	    23.473
   1.940        490.83	    24.269
   1.960        435.83	    22.869
   1.980        444.17	    23.087
   2.000        420.83	    22.472
   2.020        415.83	    22.338
   2.040        437.50	    22.913
   2.060        455.83	    23.388
   2.080        400.00	    21.909
   2.100        385.00	    21.494
   2.120        397.50	    21.840
   2.140        398.33	    21.863
   2.160        416.67	    22.361
   2.180        335.00	    20.050
   2.200        407.50	    22.113
   2.220        352.50	    20.567
   2.240        372.50	    21.142
   2.260        388.33	    21.587
   2.280        332.50	    19.975
   2.300        345.00	    20.347
   2.320        382.50	    21.424
   2.340        321.67	    19.647
   2.360        312.50	    19.365
   2.380        329.17	    19.875
   2.400        311.67	    19.339
   2.420        345.83	    20.372
   2.440        309.17	    19.261
   2.460        319.17	    19.570
   2.480        331.67	    19.950
   2.500        313.33	    19.391
   2.520        328.33	    19.849
   2.540        275.83	    18.193
   2.560        293.33	    18.762
   2.580        270.83	    18.028
   2.600        325.83	    19.774
   2.620        297.50	    18.894
   2.640        275.00	    18.166
   2.660        272.50	    18.083
   2.680        272.50	    18.083
   2.700        308.33	    19.235
   2.720        289.17	    18.628
   2.740        294.17	    18.788
   2.760        236.67	    16.852
   2.780        243.33	    17.088
   2.800        241.67	    17.029
   2.820        265.00	    17.833
   2.840        288.33	    18.601
   2.860        255.83	    17.521
   2.880        259.17	    17.635
   2.900        253.33	    17.436
   2.920        241.67	    17.029
   2.940        251.67	    17.378
   2.960        242.50	    17.059
   2.980        249.17	    17.292
   3.000        258.33	    17.607
   3.020        249.17	    17.292
   3.040        245.83	    17.176
   3.060        240.83	    17.000
   3.080        233.33	    16.733
   3.100        250.00	    17.321
   3.120        223.33	    16.371
   3.140        210.83	    15.906
   3.160        229.17	    16.583
   3.180        223.33	    16.371
   3.200        224.17	    16.401
   3.220        238.33	    16.912
   3.240        228.33	    16.553
   3.260        175.00	    14.491
   3.280        242.50	    17.059
   3.300        209.17	    15.843
   3.320        239.17	    16.941
   3.340        190.83	    15.133
   3.360        240.00	    16.971
   3.380        210.00	    15.875
   3.400        219.17	    16.217
   3.420        209.17	    15.843
   3.440        197.50	    15.395
   3.460        222.50	    16.340
   3.480        204.17	    15.652
   3.500        236.67	    16.852
   3.520        206.67	    15.748
   3.540        194.17	    15.264
   3.560        180.83	    14.731
   3.580        204.17	    15.652
   3.600        188.33	    15.033
   3.620        196.67	    15.362
   3.640        214.17	    16.031
   3.660        202.50	    15.588
   3.680        186.67	    14.967
   3.700        199.17	    15.460
   3.720        183.33	    14.832
   3.740        171.67	    14.353
   3.760        179.17	    14.663
   3.780        191.67	    15.166
   3.800        182.50	    14.799
   3.820        185.00	    14.900
   3.840        205.83	    15.716
   3.860        175.83	    14.526
   3.880        176.67	    14.560
   3.900        176.67	    14.560
   3.920        196.67	    15.362
   3.940        157.50	    13.748
   3.960        192.50	    15.199
   3.980        175.83	    14.526
   4.000        153.33	    13.565
   4.020        165.00	    14.071
   4.040        169.17	    14.248
   4.060        167.50	    14.177
   4.080        151.67	    13.491
   4.100        172.50	    14.387
   4.120        149.17	    13.379
   4.140        161.67	    13.928
   4.160        159.17	    13.820
   4.180        169.17	    14.248
   4.200        175.83	    14.526
   4.220        160.83	    13.892
   4.240        165.83	    14.107
   4.260        148.33	    13.342
   4.280        155.00	    13.638
   4.300        145.83	    13.229
   4.320        150.83	    13.454
   4.340        158.33	    13.784
   4.360        157.50	    13.748
   4.380        140.00	    12.961
   4.400        156.67	    13.711
   4.420        155.83	    13.675
   4.440        159.17	    13.820
   4.460        157.50	    13.748
   4.480        167.50	    14.177
   4.500        160.83	    13.892
   4.520        131.67	    12.570
   4.540        154.17	    13.601
   4.560        157.50	    13.748
   4.580        160.00	    13.856
   4.600        135.00	    12.728
   4.620        143.33	    13.115
   4.640        159.17	    13.820
   4.660        173.33	    14.422
   4.680        140.00	    12.961
   4.700        144.17	    13.153
   4.720        135.83	    12.767
   4.740        159.17	    13.820
   4.760        133.33	    12.649
   4.780        140.83	    13.000
   4.800        144.17	    13.153
   4.820        141.67	    13.038
   4.840        128.33	    12.410
   4.860        144.17	    13.153
   4.880        131.67	    12.570
   4.900        120.00	    12.000
   4.920        142.50	    13.077
   4.940        125.00	    12.247
   4.960        131.67	    12.570
   4.980        142.50	    13.077
   5.000        101.67	    11.045
   5.020        119.17	    11.958
   5.040        130.83	    12.530
   5.060        130.00	    12.490
   5.080        130.83	    12.530
   5.100        106.67	    11.314
   5.120        144.17	    13.153
   5.140        124.17	    12.207
   5.160        137.50	    12.845
   5.180        124.17	    12.207
   5.200        136.67	    12.806
   5.220        146.67	    13.266
   5.240        119.17	    11.958
   5.260        122.50	    12.124
   5.280        147.50	    13.304
   5.300        122.50	    12.124
   5.320        124.17	    12.207
   5.340        130.00	    12.490
   5.360        125.00	    12.247
   5.380        120.83	    12.042
   5.400        125.00	    12.247
   5.420        124.17	    12.207
   5.440        128.33	    12.410
   5.460        122.50	    12.124
   5.480        110.00	    11.489
   5.500        130.00	    12.490
   5.520        119.17	    11.958
   5.540        110.83	    11.533
   5.560        125.83	    12.288
   5.580        122.50	    12.124
   5.600        124.17	    12.207
   5.620        131.67	    12.570
   5.640        133.33	    12.649
   5.660        130.00	    12.490
   5.680        137.50	    12.845
   5.700        130.00	    12.490
   5.720        127.50	    12.369
   5.740        121.67	    12.083
   5.760        123.33	    12.166
   5.780        123.33	    12.166
   5.800        124.17	    12.207
   5.820        146.67	    13.266
   5.840        140.83	    13.000
   5.860        134.17	    12.689
   5.880        140.83	    13.000
   5.900        153.33	    13.565
   5.920        145.00	    13.191
   5.940        166.67	    14.142
   5.960        190.00	    15.100
   5.980        195.00	    15.297
   6.000        196.67	    15.362
   6.020        247.50	    17.234
   6.040        253.33	    17.436
   6.060        240.83	    17.000
   6.080        260.00	    17.664
   6.100        236.67	    16.852
   6.120        246.67	    17.205
   6.140        275.00	    18.166
   6.160        315.83	    19.468
   6.180        358.33	    20.736
   6.200        325.00	    19.748
   6.220        311.67	    19.339
   6.240        290.83	    18.682
   6.260        276.67	    18.221
   6.280        253.33	    17.436
   6.300        252.50	    17.407
   6.320        210.83	    15.906
   6.340        162.50	    13.964
   6.360        151.67	    13.491
   6.380        149.17	    13.379
   6.400        150.83	    13.454
   6.420        144.17	    13.153
   6.440        131.67	    12.570
   6.460        145.83	    13.229
   6.480        128.33	    12.410
   6.500        120.00	    12.000
   6.520        120.00	    12.000
   6.540        113.33	    11.662
   6.560        105.83	    11.269
   6.580        128.33	    12.410
   6.600        100.00	    10.954
   6.620        117.50	    11.874
   6.640        119.17	    11.958
   6.660        110.00	    11.489
   6.680         95.00	    10.677
   6.700        109.17	    11.446
   6.720        117.50	    11.874
   6.740         95.83	    10.724
   6.760        113.33	    11.662
   6.780        108.33	    11.402
   6.800         97.50	    10.817
   6.820        100.83	    11.000
   6.840         91.67	    10.488
   6.860        109.17	    11.446
   6.880        105.00	    11.225
   6.900        105.00	    11.225
   6.920        103.33	    11.136
   6.940        105.83	    11.269
   6.960        106.67	    11.314
   6.980        100.00	    10.954
   7.000         98.33	    10.863
   7.020        109.17	    11.446
   7.040        101.67	    11.045
   7.060        115.00	    11.747
   7.080        104.17	    11.180
   7.100        105.00	    11.225
   7.120        103.33	    11.136
   7.140        107.50	    11.358
   7.160         98.33	    10.863
   7.180         95.00	    10.677
   7.200        100.00	    10.954
   7.220        105.00	    11.225
   7.240         93.33	    10.583
   7.260        103.33	    11.136
   7.280        105.00	    11.225
   7.300         98.33	    10.863
   7.320        104.17	    11.180
   7.340         97.50	    10.817
   7.360         87.50	    10.247
   7.380         90.83	    10.440
   7.400         97.50	    10.817
   7.420        100.83	    11.000
   7.440         94.17	    10.630
   7.460        104.17	    11.180
   7.480         93.33	    10.583
   7.500         99.17	    10.909
   7.520         81.67	     9.899
   7.540         91.67	    10.488
   7.560         92.50	    10.536
   7.580        101.67	    11.045
   7.600         88.33	    10.296
   7.620         85.00	    10.100
   7.640        101.67	    11.045
   7.660         89.17	    10.344
   7.680         93.33	    10.583
   7.700         85.00	    10.100
   7.720         89.17	    10.344
   7.740         90.00	    10.392
   7.760         92.50	    10.536
   7.780         99.17	    10.909
   7.800        100.00	    10.954
   7.820        103.33	    11.136
   7.840         82.50	     9.950
   7.860         85.83	    10.149
   7.880         92.50	    10.536
   7.900         98.33	    10.863
   7.920         92.50	    10.536
   7.940         73.33	     9.381
   7.960         86.67	    10.198
   7.980         89.17	    10.344
   8.000         95.00	    10.677
   8.020         79.17	     9.747
   8.040         80.00	     9.798
   8.060         80.83	     9.849
   8.080         95.00	    10.677
   8.100         82.50	     9.950
   8.120         85.83	    10.149
   8.140         88.33	    10.296
   8.160         99.17	    10.909
   8.180         93.33	    10.583
   8.200         84.17	    10.050
   8.220         90.00	    10.392
   8.240        104.17	    11.180
   8.260        104.17	    11.180
   8.280        109.17	    11.446
   8.300         84.17	    10.050
   8.320         97.50	    10.817
   8.340         90.83	    10.440
   8.360        109.17	    11.446
   8.380         80.83	     9.849
   8.400        104.17	    11.180
   8.420         91.67	    10.488
   8.440         92.50	    10.536
   8.460         98.33	    10.863
   8.480        105.83	    11.269
   8.500        102.50	    11.091
   8.520        125.00	    12.247
   8.540        111.67	    11.576
   8.560        112.50	    11.619
   8.580        135.00	    12.728
   8.600        130.83	    12.530
   8.620        125.83	    12.288
   8.640        120.83	    12.042
   8.660        127.50	    12.369
   8.680        131.67	    12.570
   8.700        168.33	    14.213
   8.720        198.33	    15.427
   8.740        221.67	    16.310
   8.760        248.33	    17.263
   8.780        234.17	    16.763
   8.800        253.33	    17.436
   8.820        267.50	    17.916
   8.840        274.17	    18.138
   8.860        323.33	    19.698
   8.880        391.67	    21.679
   8.900        506.67	    24.658
   8.920        669.17	    28.337
   8.940        763.33	    30.265
   8.960        744.17	    29.883
   8.980        544.17	    25.554
   9.000        305.00	    19.131
   9.020        179.17	    14.663
   9.040        137.50	    12.845
   9.060        108.33	    11.402
   9.080        107.50	    11.358
   9.100         88.33	    10.296
   9.120        100.00	    10.954
   9.140        115.83	    11.790
   9.160        105.00	    11.225
   9.180         95.00	    10.677
   9.200         91.67	    10.488
   9.220        103.33	    11.136
   9.240        110.00	    11.489
   9.260         93.33	    10.583
   9.280        109.17	    11.446
   9.300         91.67	    10.488
   9.320         90.00	    10.392
   9.340         80.83	     9.849
   9.360         91.67	    10.488
   9.380         90.83	    10.440
   9.400         89.17	    10.344
   9.420        100.00	    10.954
   9.440        115.00	    11.747
   9.460         97.50	    10.817
   9.480        118.33	    11.916
   9.500        122.50	    12.124
   9.520        129.17	    12.450
   9.540        113.33	    11.662
   9.560        106.67	    11.314
   9.580         87.50	    10.247
   9.600         80.00	     9.798
   9.620         85.83	    10.149
   9.640         72.50	     9.327
   9.660         84.17	    10.050
   9.680         88.33	    10.296
   9.700         75.83	     9.539
   9.720         75.00	     9.487
   9.740         90.00	    10.392
   9.760         72.50	     9.327
   9.780         70.83	     9.220
   9.800         76.67	     9.592
   9.820         88.33	    10.296
   9.840         77.50	     9.644
   9.860         85.00	    10.100
   9.880         79.17	     9.747
   9.900         78.33	     9.695
   9.920         78.33	     9.695
   9.940         70.00	     9.165
   9.960         60.00	     8.485
   9.980         75.00	     9.487
  10.000         79.17	     9.747
  10.020         86.67	    10.198
  10.040         77.50	     9.644
  10.060         80.00	     9.798
  10.080         67.50	     9.000
  10.100         60.00	     8.485
  10.120         82.50	     9.950
  10.140         72.50	     9.327
  10.160         61.67	     8.602
  10.180         63.33	     8.718
  10.200         65.00	     8.832
  10.220         83.33	    10.000
  10.240         68.33	     9.055
  10.260         55.00	     8.124
  10.280         60.83	     8.544
  10.300         73.33	     9.381
  10.320         67.50	     9.000
  10.340         68.33	     9.055
  10.360         81.67	     9.899
  10.380         75.83	     9.539
  10.400         81.67	     9.899
  10.420         92.50	    10.536
  10.440         65.00	     8.832
  10.460         69.17	     9.110
  10.480         90.83	    10.440
  10.500         79.17	     9.747
  10.520         91.67	    10.488
  10.540        105.00	    11.225
  10.560        116.67	    11.832
  10.580        134.17	    12.689
  10.600        119.17	    11.958
  10.620        115.00	    11.747
  10.640         95.00	    10.677
  10.660         62.50	     8.660
  10.680         72.50	     9.327
  10.700         72.50	     9.327
  10.720         75.00	     9.487
  10.740         77.50	     9.644
  10.760         55.83	     8.185
  10.780         58.33	     8.367
  10.800         80.00	     9.798
  10.820         80.83	     9.849
  10.840         80.00	     9.798
  10.860         85.83	    10.149
  10.880         69.17	     9.110
  10.900         85.00	    10.100
  10.920         70.83	     9.220
  10.940         65.00	     8.832
  10.960         70.83	     9.220
  10.980         77.50	     9.644
  11.000         52.50	     7.937
  11.020         68.33	     9.055
  11.040         71.67	     9.274
  11.060         74.17	     9.434
  11.080         82.50	     9.950
  11.100         65.83	     8.888
  11.120         62.50	     8.660
  11.140         78.33	     9.695
  11.160         71.67	     9.274
  11.180         73.33	     9.381
  11.200         70.83	     9.220
  11.220         80.83	     9.849
  11.240         65.83	     8.888
  11.260         63.33	     8.718
  11.280         65.00	     8.832
  11.300         65.00	     8.832
  11.320         62.50	     8.660
  11.340         80.00	     9.798
  11.360         73.33	     9.381
  11.380         62.50	     8.660
  11.400         76.67	     9.592
  11.420         69.17	     9.110
  11.440         71.67	     9.274
  11.460         70.83	     9.220
  11.480         67.50	     9.000
  11.500         73.33	     9.381
  11.520         75.83	     9.539
  11.540         59.17	     8.426
  11.560         61.67	     8.602
  11.580         70.00	     9.165
  11.600         95.83	    10.724
  11.620         70.83	     9.220
  11.640         69.17	     9.110
  11.660         80.00	     9.798
  11.680         75.00	     9.487
  11.700         62.50	     8.660
  11.720         71.67	     9.274
  11.740         95.00	    10.677
  11.760         70.83	     9.220
  11.780         78.33	     9.695
  11.800         72.50	     9.327
  11.820         64.17	     8.775
  11.840         70.83	     9.220
  11.860         80.00	     9.798
  11.880         77.50	     9.644
  11.900         77.50	     9.644
  11.920         76.67	     9.592
  11.940         66.67	     8.944
  11.960         92.50	    10.536
  11.980         78.33	     9.695
  12.000         78.33	     9.695
  12.020         83.33	    10.000
  12.040         85.83	    10.149
  12.060        104.17	    11.180
  12.080        122.50	    12.124
  12.100        145.00	    13.191
  12.120        174.17	    14.457
  12.140        219.17	    16.217
  12.160        261.67	    17.720
  12.180        365.83	    20.952
  12.200        476.67	    23.917
  12.220        621.67	    27.313
  12.240        779.17	    30.578
  12.260        762.50	    30.249
  12.280        674.17	    28.443
  12.300        437.50	    22.913
  12.320        345.00	    20.347
  12.340        275.00	    18.166
  12.360        295.00	    18.815
  12.380        315.83	    19.468
