
Filename:
	C:\Program Files\Thermo Electron\WinXRD\Datafiles\F_HERMAN\FIEN\10_2_AUG_RT.raw

File Created:
	February 22, 2019 - 02:46 PM

Specimen Id:
	9.1 AUGUST 0 BG

Specimen Name:
	

Specimen Description:
	

Comment:
Scan Type: 2Theta Scan
Start Angle: 1 deg.
Stop Angle: 65 deg.
Num Points: 3201
Step Size: 0.02 deg.
Scan Rate: 1.000000
Scan Mode: Continuous
Wavelength: 1.540562
\Kalpha1: 1.540562	\Kalpha2: 1.544390	\Kbeta: 1.392218

Optics:
		Detector:
			 Type: Fixed Slits
		Tube: 
			 Type: Fixed Slits


Datas:
 Pos [deg]       Rate [CPS]      ESD [-]

Range 1 ---> Iteration 1
   1.000        881.67	    32.527
   1.020        762.50	    30.249
   1.040        635.83	    27.622
   1.060        686.67	    28.705
   1.080        553.33	    25.768
   1.100        433.33	    22.804
   1.120        528.33	    25.179
   1.140        430.00	    22.716
   1.160        470.83	    23.770
   1.180        515.83	    24.880
   1.200        429.17	    22.694
   1.220        389.17	    21.610
   1.240        403.33	    22.000
   1.260        410.00	    22.181
   1.280        480.83	    24.021
   1.300        638.33	    27.677
   1.320        707.50	    29.138
   1.340        755.00	    30.100
   1.360       1135.83	    36.919
   1.380       1322.50	    39.837
   1.400       1395.00	    40.915
   1.420       1455.83	    41.797
   1.440       1302.50	    39.535
   1.460       1354.17	    40.311
   1.480       1272.50	    39.077
   1.500       1280.00	    39.192
   1.520       1148.33	    37.121
   1.540       1232.50	    38.458
   1.560       1160.83	    37.323
   1.580       1105.83	    36.428
   1.600       1049.17	    35.482
   1.620       1056.67	    35.609
   1.640        951.67	    33.793
   1.660        980.00	    34.293
   1.680        857.50	    32.078
   1.700        804.17	    31.064
   1.720        740.83	    29.816
   1.740        752.50	    30.050
   1.760        738.33	    29.766
   1.780        703.33	    29.052
   1.800        587.50	    26.552
   1.820        641.67	    27.749
   1.840        600.00	    26.833
   1.860        582.50	    26.439
   1.880        525.00	    25.100
   1.900        532.50	    25.278
   1.920        527.50	    25.159
   1.940        525.00	    25.100
   1.960        493.33	    24.331
   1.980        503.33	    24.576
   2.000        537.50	    25.397
   2.020        468.33	    23.707
   2.040        510.00	    24.739
   2.060        472.50	    23.812
   2.080        482.50	    24.062
   2.100        460.00	    23.495
   2.120        442.50	    23.043
   2.140        440.83	    23.000
   2.160        440.83	    23.000
   2.180        395.83	    21.794
   2.200        427.50	    22.650
   2.220        403.33	    22.000
   2.240        438.33	    22.935
   2.260        413.33	    22.271
   2.280        383.33	    21.448
   2.300        390.00	    21.633
   2.320        363.33	    20.881
   2.340        385.00	    21.494
   2.360        370.00	    21.071
   2.380        356.67	    20.688
   2.400        360.00	    20.785
   2.420        385.00	    21.494
   2.440        306.67	    19.183
   2.460        346.67	    20.396
   2.480        327.50	    19.824
   2.500        376.67	    21.260
   2.520        330.00	    19.900
   2.540        326.67	    19.799
   2.560        303.33	    19.079
   2.580        317.50	    19.519
   2.600        333.33	    20.000
   2.620        335.83	    20.075
   2.640        343.33	    20.298
   2.660        300.00	    18.974
   2.680        328.33	    19.849
   2.700        305.83	    19.157
   2.720        294.17	    18.788
   2.740        318.33	    19.545
   2.760        303.33	    19.079
   2.780        293.33	    18.762
   2.800        288.33	    18.601
   2.820        300.00	    18.974
   2.840        295.00	    18.815
   2.860        310.83	    19.313
   2.880        285.00	    18.493
   2.900        283.33	    18.439
   2.920        275.00	    18.166
   2.940        270.00	    18.000
   2.960        250.83	    17.349
   2.980        266.67	    17.889
   3.000        266.67	    17.889
   3.020        279.17	    18.303
   3.040        255.83	    17.521
   3.060        260.83	    17.692
   3.080        248.33	    17.263
   3.100        271.67	    18.055
   3.120        268.33	    17.944
   3.140        272.50	    18.083
   3.160        240.00	    16.971
   3.180        260.83	    17.692
   3.200        247.50	    17.234
   3.220        250.00	    17.321
   3.240        271.67	    18.055
   3.260        250.83	    17.349
   3.280        237.50	    16.882
   3.300        243.33	    17.088
   3.320        242.50	    17.059
   3.340        211.67	    15.937
   3.360        261.67	    17.720
   3.380        225.00	    16.432
   3.400        255.83	    17.521
   3.420        240.00	    16.971
   3.440        223.33	    16.371
   3.460        230.00	    16.613
   3.480        215.83	    16.093
   3.500        234.17	    16.763
   3.520        217.50	    16.155
   3.540        218.33	    16.186
   3.560        220.00	    16.248
   3.580        218.33	    16.186
   3.600        229.17	    16.583
   3.620        217.50	    16.155
   3.640        207.50	    15.780
   3.660        202.50	    15.588
   3.680        195.83	    15.330
   3.700        254.17	    17.464
   3.720        223.33	    16.371
   3.740        173.33	    14.422
   3.760        230.00	    16.613
   3.780        197.50	    15.395
   3.800        199.17	    15.460
   3.820        201.67	    15.556
   3.840        212.50	    15.969
   3.860        176.67	    14.560
   3.880        187.50	    15.000
   3.900        215.83	    16.093
   3.920        191.67	    15.166
   3.940        205.00	    15.684
   3.960        196.67	    15.362
   3.980        195.83	    15.330
   4.000        188.33	    15.033
   4.020        200.00	    15.492
   4.040        191.67	    15.166
   4.060        205.00	    15.684
   4.080        185.00	    14.900
   4.100        185.00	    14.900
   4.120        182.50	    14.799
   4.140        170.83	    14.318
   4.160        166.67	    14.142
   4.180        183.33	    14.832
   4.200        199.17	    15.460
   4.220        166.67	    14.142
   4.240        190.83	    15.133
   4.260        191.67	    15.166
   4.280        188.33	    15.033
   4.300        194.17	    15.264
   4.320        163.33	    14.000
   4.340        171.67	    14.353
   4.360        164.17	    14.036
   4.380        177.50	    14.595
   4.400        178.33	    14.629
   4.420        168.33	    14.213
   4.440        172.50	    14.387
   4.460        174.17	    14.457
   4.480        172.50	    14.387
   4.500        164.17	    14.036
   4.520        157.50	    13.748
   4.540        160.83	    13.892
   4.560        155.83	    13.675
   4.580        159.17	    13.820
   4.600        150.00	    13.416
   4.620        162.50	    13.964
   4.640        157.50	    13.748
   4.660        169.17	    14.248
   4.680        146.67	    13.266
   4.700        140.83	    13.000
   4.720        152.50	    13.528
   4.740        147.50	    13.304
   4.760        175.83	    14.526
   4.780        154.17	    13.601
   4.800        153.33	    13.565
   4.820        148.33	    13.342
   4.840        140.83	    13.000
   4.860        180.83	    14.731
   4.880        161.67	    13.928
   4.900        166.67	    14.142
   4.920        165.83	    14.107
   4.940        170.00	    14.283
   4.960        151.67	    13.491
   4.980        132.50	    12.610
   5.000        135.00	    12.728
   5.020        162.50	    13.964
   5.040        146.67	    13.266
   5.060        163.33	    14.000
   5.080        153.33	    13.565
   5.100        140.83	    13.000
   5.120        150.83	    13.454
   5.140        145.00	    13.191
   5.160        137.50	    12.845
   5.180        153.33	    13.565
   5.200        130.83	    12.530
   5.220        143.33	    13.115
   5.240        141.67	    13.038
   5.260        138.33	    12.884
   5.280        150.83	    13.454
   5.300        149.17	    13.379
   5.320        149.17	    13.379
   5.340        138.33	    12.884
   5.360        162.50	    13.964
   5.380        134.17	    12.689
   5.400        155.83	    13.675
   5.420        148.33	    13.342
   5.440        158.33	    13.784
   5.460        161.67	    13.928
   5.480        140.83	    13.000
   5.500        149.17	    13.379
   5.520        134.17	    12.689
   5.540        155.83	    13.675
   5.560        132.50	    12.610
   5.580        147.50	    13.304
   5.600        144.17	    13.153
   5.620        162.50	    13.964
   5.640        157.50	    13.748
   5.660        117.50	    11.874
   5.680        142.50	    13.077
   5.700        140.83	    13.000
   5.720        145.00	    13.191
   5.740        178.33	    14.629
   5.760        150.00	    13.416
   5.780        148.33	    13.342
   5.800        161.67	    13.928
   5.820        170.83	    14.318
   5.840        165.00	    14.071
   5.860        159.17	    13.820
   5.880        172.50	    14.387
   5.900        196.67	    15.362
   5.920        227.50	    16.523
   5.940        219.17	    16.217
   5.960        232.50	    16.703
   5.980        280.00	    18.330
   6.000        310.83	    19.313
   6.020        402.50	    21.977
   6.040        453.33	    23.324
   6.060        537.50	    25.397
   6.080        615.83	    27.185
   6.100        631.67	    27.532
   6.120        635.00	    27.604
   6.140        563.33	    26.000
   6.160        490.00	    24.249
   6.180        466.67	    23.664
   6.200        358.33	    20.736
   6.220        312.50	    19.365
   6.240        235.00	    16.793
   6.260        208.33	    15.811
   6.280        190.00	    15.100
   6.300        167.50	    14.177
   6.320        161.67	    13.928
   6.340        152.50	    13.528
   6.360        153.33	    13.565
   6.380        145.00	    13.191
   6.400        141.67	    13.038
   6.420        145.00	    13.191
   6.440        138.33	    12.884
   6.460        138.33	    12.884
   6.480        165.83	    14.107
   6.500        128.33	    12.410
   6.520        140.83	    13.000
   6.540        131.67	    12.570
   6.560        143.33	    13.115
   6.580        130.83	    12.530
   6.600        121.67	    12.083
   6.620        139.17	    12.923
   6.640        125.83	    12.288
   6.660        143.33	    13.115
   6.680        141.67	    13.038
   6.700        120.83	    12.042
   6.720        143.33	    13.115
   6.740        120.00	    12.000
   6.760        126.67	    12.329
   6.780        137.50	    12.845
   6.800        124.17	    12.207
   6.820        124.17	    12.207
   6.840        115.83	    11.790
   6.860        136.67	    12.806
   6.880        107.50	    11.358
   6.900        100.00	    10.954
   6.920        106.67	    11.314
   6.940        125.83	    12.288
   6.960        110.83	    11.533
   6.980        132.50	    12.610
   7.000        111.67	    11.576
   7.020        123.33	    12.166
   7.040        130.00	    12.490
   7.060        121.67	    12.083
   7.080        116.67	    11.832
   7.100        120.00	    12.000
   7.120         96.67	    10.770
   7.140        115.00	    11.747
   7.160        106.67	    11.314
   7.180        111.67	    11.576
   7.200        115.00	    11.747
   7.220        135.83	    12.767
   7.240        104.17	    11.180
   7.260        125.00	    12.247
   7.280        102.50	    11.091
   7.300        121.67	    12.083
   7.320        112.50	    11.619
   7.340        127.50	    12.369
   7.360        117.50	    11.874
   7.380        117.50	    11.874
   7.400        102.50	    11.091
   7.420        124.17	    12.207
   7.440         96.67	    10.770
   7.460         92.50	    10.536
   7.480        113.33	    11.662
   7.500        122.50	    12.124
   7.520        105.83	    11.269
   7.540         91.67	    10.488
   7.560        105.00	    11.225
   7.580        104.17	    11.180
   7.600        122.50	    12.124
   7.620        107.50	    11.358
   7.640        103.33	    11.136
   7.660         94.17	    10.630
   7.680        110.00	    11.489
   7.700         96.67	    10.770
   7.720        110.83	    11.533
   7.740        108.33	    11.402
   7.760         97.50	    10.817
   7.780         95.00	    10.677
   7.800        114.17	    11.705
   7.820         99.17	    10.909
   7.840         98.33	    10.863
   7.860        113.33	    11.662
   7.880         99.17	    10.909
   7.900        104.17	    11.180
   7.920        115.00	    11.747
   7.940        105.00	    11.225
   7.960        130.00	    12.490
   7.980        109.17	    11.446
   8.000        129.17	    12.450
   8.020        109.17	    11.446
   8.040        109.17	    11.446
   8.060        110.00	    11.489
   8.080         87.50	    10.247
   8.100        114.17	    11.705
   8.120        101.67	    11.045
   8.140        116.67	    11.832
   8.160        110.83	    11.533
   8.180        116.67	    11.832
   8.200         99.17	    10.909
   8.220        105.00	    11.225
   8.240        100.00	    10.954
   8.260        104.17	    11.180
   8.280        108.33	    11.402
   8.300        105.83	    11.269
   8.320        110.00	    11.489
   8.340        110.00	    11.489
   8.360         97.50	    10.817
   8.380        125.83	    12.288
   8.400        110.00	    11.489
   8.420        117.50	    11.874
   8.440        111.67	    11.576
   8.460        110.83	    11.533
   8.480        148.33	    13.342
   8.500        120.00	    12.000
   8.520        138.33	    12.884
   8.540        130.83	    12.530
   8.560        136.67	    12.806
   8.580        145.83	    13.229
   8.600        166.67	    14.142
   8.620        155.00	    13.638
   8.640        180.83	    14.731
   8.660        192.50	    15.199
   8.680        253.33	    17.436
   8.700        254.17	    17.464
   8.720        295.83	    18.841
   8.740        311.67	    19.339
   8.760        385.00	    21.494
   8.780        456.67	    23.409
   8.800        578.33	    26.344
   8.820        845.00	    31.843
   8.840        981.67	    34.322
   8.860        910.00	    33.045
   8.880        641.67	    27.749
   8.900        362.50	    20.857
   8.920        190.83	    15.133
   8.940        141.67	    13.038
   8.960        147.50	    13.304
   8.980        125.83	    12.288
   9.000        130.00	    12.490
   9.020        140.00	    12.961
   9.040        119.17	    11.958
   9.060        123.33	    12.166
   9.080        120.83	    12.042
   9.100        144.17	    13.153
   9.120        160.83	    13.892
   9.140        180.00	    14.697
   9.160        180.83	    14.731
   9.180        125.00	    12.247
   9.200        105.83	    11.269
   9.220         96.67	    10.770
   9.240        131.67	    12.570
   9.260        115.83	    11.790
   9.280        120.83	    12.042
   9.300        110.83	    11.533
   9.320        143.33	    13.115
   9.340        135.00	    12.728
   9.360        173.33	    14.422
   9.380        245.83	    17.176
   9.400        295.83	    18.841
   9.420        312.50	    19.365
   9.440        238.33	    16.912
   9.460        158.33	    13.784
   9.480        100.83	    11.000
   9.500         97.50	    10.817
   9.520        110.00	    11.489
   9.540         91.67	    10.488
   9.560         91.67	    10.488
   9.580        106.67	    11.314
   9.600         76.67	     9.592
   9.620         72.50	     9.327
   9.640         89.17	    10.344
   9.660         78.33	     9.695
   9.680         85.83	    10.149
   9.700        104.17	    11.180
   9.720         73.33	     9.381
   9.740         88.33	    10.296
   9.760         70.00	     9.165
   9.780         93.33	    10.583
   9.800         84.17	    10.050
   9.820         67.50	     9.000
   9.840         63.33	     8.718
   9.860         90.00	    10.392
   9.880         85.83	    10.149
   9.900         97.50	    10.817
   9.920         83.33	    10.000
   9.940         89.17	    10.344
   9.960         85.83	    10.149
   9.980         84.17	    10.050
  10.000         80.00	     9.798
  10.020         80.00	     9.798
  10.040         70.83	     9.220
  10.060         90.00	    10.392
  10.080         80.83	     9.849
  10.100         76.67	     9.592
  10.120         55.83	     8.185
  10.140         66.67	     8.944
  10.160         69.17	     9.110
  10.180         80.00	     9.798
  10.200         86.67	    10.198
  10.220         75.83	     9.539
  10.240         91.67	    10.488
  10.260         86.67	    10.198
  10.280         74.17	     9.434
  10.300         62.50	     8.660
  10.320         71.67	     9.274
  10.340        104.17	    11.180
  10.360         73.33	     9.381
  10.380         91.67	    10.488
  10.400         86.67	    10.198
  10.420        107.50	    11.358
  10.440        130.83	    12.530
  10.460        108.33	    11.402
  10.480        164.17	    14.036
  10.500        186.67	    14.967
  10.520        267.50	    17.916
  10.540        228.33	    16.553
  10.560        182.50	    14.799
  10.580        105.83	    11.269
  10.600        103.33	    11.136
  10.620         84.17	    10.050
  10.640         84.17	    10.050
  10.660         99.17	    10.909
  10.680         86.67	    10.198
  10.700         58.33	     8.367
  10.720         81.67	     9.899
  10.740         78.33	     9.695
  10.760         85.83	    10.149
  10.780         80.00	     9.798
  10.800         83.33	    10.000
  10.820         75.83	     9.539
  10.840         79.17	     9.747
  10.860         95.00	    10.677
  10.880         92.50	    10.536
  10.900         82.50	     9.950
  10.920         70.00	     9.165
  10.940         92.50	    10.536
  10.960        105.83	    11.269
  10.980         91.67	    10.488
  11.000         78.33	     9.695
  11.020         72.50	     9.327
  11.040         70.00	     9.165
  11.060         84.17	    10.050
  11.080         85.83	    10.149
  11.100         80.00	     9.798
  11.120         80.83	     9.849
  11.140         65.83	     8.888
  11.160         87.50	    10.247
  11.180         80.00	     9.798
  11.200         73.33	     9.381
  11.220         82.50	     9.950
  11.240         99.17	    10.909
  11.260         88.33	    10.296
  11.280         65.83	     8.888
  11.300         70.83	     9.220
  11.320         85.83	    10.149
  11.340         80.00	     9.798
  11.360         70.00	     9.165
  11.380         60.00	     8.485
  11.400         66.67	     8.944
  11.420         79.17	     9.747
  11.440         78.33	     9.695
  11.460         78.33	     9.695
  11.480         96.67	    10.770
  11.500         80.00	     9.798
  11.520         87.50	    10.247
  11.540         71.67	     9.274
  11.560         84.17	    10.050
  11.580         79.17	     9.747
  11.600         94.17	    10.630
  11.620        100.00	    10.954
  11.640         85.00	    10.100
  11.660         82.50	     9.950
  11.680         90.83	    10.440
  11.700         73.33	     9.381
  11.720         94.17	    10.630
  11.740         86.67	    10.198
  11.760        110.00	    11.489
  11.780         99.17	    10.909
  11.800        101.67	    11.045
  11.820         98.33	    10.863
  11.840        115.00	    11.747
  11.860        110.00	    11.489
  11.880        116.67	    11.832
  11.900        123.33	    12.166
  11.920        130.83	    12.530
  11.940        140.00	    12.961
  11.960        144.17	    13.153
  11.980        200.00	    15.492
  12.000        225.00	    16.432
  12.020        230.00	    16.613
  12.040        345.00	    20.347
  12.060        431.67	    22.760
  12.080        666.67	    28.284
  12.100        884.17	    32.573
  12.120       1442.50	    41.605
  12.140       1925.00	    48.062
  12.160       1937.50	    48.218
  12.180       1550.00	    43.128
  12.200        940.83	    33.601
  12.220        578.33	    26.344
  12.240        526.67	    25.140
  12.260        590.00	    26.608
  12.280        721.67	    29.428
  12.300        817.50	    31.321
  12.320        689.17	    28.758
  12.340        600.83	    26.851
  12.360        570.83	    26.173
  12.380        565.83	    26.058
