
Filename:
	C:\Program Files\Thermo Electron\WinXRD\Datafiles\F_HERMAN\FIEN\10_2_AUG_0_BG_RT.raw

File Created:
	February 22, 2019 - 03:50 PM

Specimen Id:
	10.2 AUG 0 BG

Specimen Name:
	

Specimen Description:
	

Comment:
Scan Type: 2Theta Scan
Start Angle: 1 deg.
Stop Angle: 65 deg.
Num Points: 3201
Step Size: 0.02 deg.
Scan Rate: 1.000000
Scan Mode: Continuous
Wavelength: 1.540562
\Kalpha1: 1.540562	\Kalpha2: 1.544390	\Kbeta: 1.392218

Optics:
		Detector:
			 Type: Fixed Slits
		Tube: 
			 Type: Fixed Slits


Datas:
 Pos [deg]       Rate [CPS]      ESD [-]

Range 1 ---> Iteration 1
   1.000       1058.33	    35.637
   1.020        821.67	    31.401
   1.040        748.33	    29.967
   1.060        607.50	    27.000
   1.080        480.83	    24.021
   1.100        395.83	    21.794
   1.120        465.00	    23.622
   1.140        362.50	    20.857
   1.160        509.17	    24.718
   1.180        475.00	    23.875
   1.200        410.00	    22.181
   1.220        345.83	    20.372
   1.240        410.83	    22.204
   1.260        360.83	    20.809
   1.280        440.83	    23.000
   1.300        526.67	    25.140
   1.320        685.83	    28.688
   1.340        794.17	    30.871
   1.360        982.50	    34.337
   1.380       1175.83	    37.563
   1.400       1290.00	    39.345
   1.420       1305.00	    39.573
   1.440       1245.00	    38.652
   1.460       1241.67	    38.601
   1.480       1206.67	    38.053
   1.500       1081.67	    36.028
   1.520       1135.83	    36.919
   1.540       1068.33	    35.805
   1.560       1024.17	    35.057
   1.580        924.17	    33.302
   1.600        965.00	    34.029
   1.620        954.17	    33.838
   1.640        869.17	    32.296
   1.660        830.83	    31.575
   1.680        758.33	    30.166
   1.700        725.83	    29.513
   1.720        697.50	    28.931
   1.740        634.17	    27.586
   1.760        601.67	    26.870
   1.780        596.67	    26.758
   1.800        510.83	    24.759
   1.820        514.17	    24.839
   1.840        505.83	    24.637
   1.860        448.33	    23.195
   1.880        484.17	    24.104
   1.900        435.00	    22.847
   1.920        449.17	    23.216
   1.940        433.33	    22.804
   1.960        434.17	    22.825
   1.980        409.17	    22.159
   2.000        408.33	    22.136
   2.020        371.67	    21.119
   2.040        425.00	    22.583
   2.060        380.00	    21.354
   2.080        378.33	    21.307
   2.100        391.67	    21.679
   2.120        387.50	    21.564
   2.140        394.17	    21.749
   2.160        367.50	    21.000
   2.180        348.33	    20.445
   2.200        350.83	    20.518
   2.220        330.00	    19.900
   2.240        347.50	    20.421
   2.260        343.33	    20.298
   2.280        335.83	    20.075
   2.300        311.67	    19.339
   2.320        318.33	    19.545
   2.340        310.00	    19.287
   2.360        270.83	    18.028
   2.380        323.33	    19.698
   2.400        290.83	    18.682
   2.420        312.50	    19.365
   2.440        314.17	    19.416
   2.460        264.17	    17.804
   2.480        303.33	    19.079
   2.500        277.50	    18.248
   2.520        292.50	    18.735
   2.540        300.83	    19.000
   2.560        269.17	    17.972
   2.580        278.33	    18.276
   2.600        268.33	    17.944
   2.620        262.50	    17.748
   2.640        296.67	    18.868
   2.660        269.17	    17.972
   2.680        271.67	    18.055
   2.700        272.50	    18.083
   2.720        265.00	    17.833
   2.740        275.00	    18.166
   2.760        269.17	    17.972
   2.780        267.50	    17.916
   2.800        230.83	    16.643
   2.820        249.17	    17.292
   2.840        218.33	    16.186
   2.860        253.33	    17.436
   2.880        226.67	    16.492
   2.900        236.67	    16.852
   2.920        239.17	    16.941
   2.940        236.67	    16.852
   2.960        217.50	    16.155
   2.980        235.00	    16.793
   3.000        228.33	    16.553
   3.020        231.67	    16.673
   3.040        227.50	    16.523
   3.060        237.50	    16.882
   3.080        200.83	    15.524
   3.100        219.17	    16.217
   3.120        202.50	    15.588
   3.140        212.50	    15.969
   3.160        218.33	    16.186
   3.180        230.83	    16.643
   3.200        200.83	    15.524
   3.220        211.67	    15.937
   3.240        220.83	    16.279
   3.260        209.17	    15.843
   3.280        216.67	    16.125
   3.300        205.00	    15.684
   3.320        215.83	    16.093
   3.340        185.00	    14.900
   3.360        197.50	    15.395
   3.380        220.00	    16.248
   3.400        202.50	    15.588
   3.420        202.50	    15.588
   3.440        205.00	    15.684
   3.460        195.00	    15.297
   3.480        170.00	    14.283
   3.500        200.83	    15.524
   3.520        172.50	    14.387
   3.540        181.67	    14.765
   3.560        187.50	    15.000
   3.580        202.50	    15.588
   3.600        176.67	    14.560
   3.620        202.50	    15.588
   3.640        169.17	    14.248
   3.660        183.33	    14.832
   3.680        179.17	    14.663
   3.700        173.33	    14.422
   3.720        181.67	    14.765
   3.740        182.50	    14.799
   3.760        190.83	    15.133
   3.780        187.50	    15.000
   3.800        172.50	    14.387
   3.820        185.00	    14.900
   3.840        156.67	    13.711
   3.860        182.50	    14.799
   3.880        163.33	    14.000
   3.900        194.17	    15.264
   3.920        173.33	    14.422
   3.940        139.17	    12.923
   3.960        142.50	    13.077
   3.980        166.67	    14.142
   4.000        171.67	    14.353
   4.020        163.33	    14.000
   4.040        190.83	    15.133
   4.060        169.17	    14.248
   4.080        162.50	    13.964
   4.100        171.67	    14.353
   4.120        133.33	    12.649
   4.140        169.17	    14.248
   4.160        165.00	    14.071
   4.180        149.17	    13.379
   4.200        157.50	    13.748
   4.220        150.00	    13.416
   4.240        151.67	    13.491
   4.260        137.50	    12.845
   4.280        141.67	    13.038
   4.300        145.00	    13.191
   4.320        164.17	    14.036
   4.340        143.33	    13.115
   4.360        150.00	    13.416
   4.380        153.33	    13.565
   4.400        146.67	    13.266
   4.420        156.67	    13.711
   4.440        154.17	    13.601
   4.460        160.00	    13.856
   4.480        151.67	    13.491
   4.500        138.33	    12.884
   4.520        145.83	    13.229
   4.540        155.83	    13.675
   4.560        152.50	    13.528
   4.580        175.00	    14.491
   4.600        149.17	    13.379
   4.620        132.50	    12.610
   4.640        150.00	    13.416
   4.660        138.33	    12.884
   4.680        165.00	    14.071
   4.700        138.33	    12.884
   4.720        130.00	    12.490
   4.740        132.50	    12.610
   4.760        149.17	    13.379
   4.780        120.00	    12.000
   4.800        129.17	    12.450
   4.820        123.33	    12.166
   4.840        124.17	    12.207
   4.860        138.33	    12.884
   4.880        143.33	    13.115
   4.900        131.67	    12.570
   4.920        140.00	    12.961
   4.940        125.83	    12.288
   4.960        129.17	    12.450
   4.980        140.00	    12.961
   5.000        125.83	    12.288
   5.020        118.33	    11.916
   5.040        124.17	    12.207
   5.060        138.33	    12.884
   5.080        111.67	    11.576
   5.100        135.83	    12.767
   5.120        130.83	    12.530
   5.140        125.00	    12.247
   5.160        130.83	    12.530
   5.180        132.50	    12.610
   5.200        109.17	    11.446
   5.220        112.50	    11.619
   5.240        110.83	    11.533
   5.260         94.17	    10.630
   5.280        125.00	    12.247
   5.300        123.33	    12.166
   5.320        119.17	    11.958
   5.340        125.00	    12.247
   5.360         95.00	    10.677
   5.380        120.00	    12.000
   5.400        121.67	    12.083
   5.420        124.17	    12.207
   5.440        105.00	    11.225
   5.460        115.83	    11.790
   5.480        113.33	    11.662
   5.500        123.33	    12.166
   5.520        122.50	    12.124
   5.540        122.50	    12.124
   5.560        115.00	    11.747
   5.580        113.33	    11.662
   5.600        138.33	    12.884
   5.620        115.83	    11.790
   5.640         99.17	    10.909
   5.660        119.17	    11.958
   5.680        101.67	    11.045
   5.700         98.33	    10.863
   5.720        114.17	    11.705
   5.740        105.00	    11.225
   5.760        108.33	    11.402
   5.780        102.50	    11.091
   5.800        100.83	    11.000
   5.820        117.50	    11.874
   5.840        112.50	    11.619
   5.860        107.50	    11.358
   5.880         95.00	    10.677
   5.900        115.00	    11.747
   5.920        104.17	    11.180
   5.940        123.33	    12.166
   5.960        120.00	    12.000
   5.980         89.17	    10.344
   6.000        120.83	    12.042
   6.020        113.33	    11.662
   6.040        103.33	    11.136
   6.060        107.50	    11.358
   6.080        116.67	    11.832
   6.100        150.00	    13.416
   6.120        115.83	    11.790
   6.140        135.83	    12.767
   6.160        121.67	    12.083
   6.180        113.33	    11.662
   6.200        122.50	    12.124
   6.220        141.67	    13.038
   6.240        131.67	    12.570
   6.260        164.17	    14.036
   6.280        165.00	    14.071
   6.300        184.17	    14.866
   6.320        176.67	    14.560
   6.340        180.83	    14.731
   6.360        178.33	    14.629
   6.380        154.17	    13.601
   6.400        126.67	    12.329
   6.420        124.17	    12.207
   6.440        125.00	    12.247
   6.460        122.50	    12.124
   6.480        130.00	    12.490
   6.500         98.33	    10.863
   6.520        105.00	    11.225
   6.540        110.00	    11.489
   6.560         86.67	    10.198
   6.580        119.17	    11.958
   6.600        110.00	    11.489
   6.620        103.33	    11.136
   6.640        100.00	    10.954
   6.660        100.00	    10.954
   6.680        111.67	    11.576
   6.700        102.50	    11.091
   6.720         77.50	     9.644
   6.740         97.50	    10.817
   6.760         89.17	    10.344
   6.780         95.83	    10.724
   6.800         80.00	     9.798
   6.820         94.17	    10.630
   6.840         91.67	    10.488
   6.860         95.83	    10.724
   6.880         88.33	    10.296
   6.900        109.17	    11.446
   6.920         81.67	     9.899
   6.940         77.50	     9.644
   6.960         90.83	    10.440
   6.980         88.33	    10.296
   7.000         80.83	     9.849
   7.020         88.33	    10.296
   7.040         85.83	    10.149
   7.060         86.67	    10.198
   7.080         88.33	    10.296
   7.100        100.00	    10.954
   7.120         92.50	    10.536
   7.140         70.00	     9.165
   7.160        113.33	    11.662
   7.180         92.50	    10.536
   7.200        108.33	    11.402
   7.220         83.33	    10.000
   7.240        104.17	    11.180
   7.260         85.00	    10.100
   7.280        100.00	    10.954
   7.300         95.83	    10.724
   7.320         90.83	    10.440
   7.340         87.50	    10.247
   7.360         76.67	     9.592
   7.380         79.17	     9.747
   7.400         80.83	     9.849
   7.420         79.17	     9.747
   7.440         78.33	     9.695
   7.460         95.00	    10.677
   7.480         80.00	     9.798
   7.500         70.83	     9.220
   7.520         82.50	     9.950
   7.540         77.50	     9.644
   7.560         82.50	     9.950
   7.580         96.67	    10.770
   7.600         76.67	     9.592
   7.620         76.67	     9.592
   7.640         81.67	     9.899
   7.660         74.17	     9.434
   7.680         85.00	    10.100
   7.700         67.50	     9.000
   7.720         74.17	     9.434
   7.740         63.33	     8.718
   7.760         70.00	     9.165
   7.780         77.50	     9.644
   7.800         79.17	     9.747
   7.820         65.83	     8.888
   7.840         80.00	     9.798
   7.860         74.17	     9.434
   7.880         66.67	     8.944
   7.900         85.83	    10.149
   7.920         74.17	     9.434
   7.940         70.83	     9.220
   7.960         57.50	     8.307
   7.980         60.83	     8.544
   8.000         81.67	     9.899
   8.020         76.67	     9.592
   8.040         68.33	     9.055
   8.060         75.83	     9.539
   8.080         75.00	     9.487
   8.100         82.50	     9.950
   8.120         69.17	     9.110
   8.140         70.83	     9.220
   8.160         84.17	    10.050
   8.180         85.83	    10.149
   8.200         69.17	     9.110
   8.220         72.50	     9.327
   8.240         75.00	     9.487
   8.260         69.17	     9.110
   8.280         64.17	     8.775
   8.300         66.67	     8.944
   8.320        102.50	    11.091
   8.340         75.00	     9.487
   8.360         66.67	     8.944
   8.380         97.50	    10.817
   8.400         60.00	     8.485
   8.420         75.00	     9.487
   8.440         65.83	     8.888
   8.460         66.67	     8.944
   8.480         75.83	     9.539
   8.500         74.17	     9.434
   8.520         73.33	     9.381
   8.540         69.17	     9.110
   8.560         66.67	     8.944
   8.580         80.83	     9.849
   8.600         73.33	     9.381
   8.620         63.33	     8.718
   8.640         70.83	     9.220
   8.660         75.00	     9.487
   8.680         78.33	     9.695
   8.700         77.50	     9.644
   8.720         85.83	    10.149
   8.740         82.50	     9.950
   8.760         81.67	     9.899
   8.780         97.50	    10.817
   8.800         85.83	    10.149
   8.820         93.33	    10.583
   8.840         95.00	    10.677
   8.860        122.50	    12.124
   8.880        122.50	    12.124
   8.900        147.50	    13.304
   8.920        164.17	    14.036
   8.940        194.17	    15.264
   8.960        232.50	    16.703
   8.980        253.33	    17.436
   9.000        282.50	    18.412
   9.020        315.83	    19.468
   9.040        292.50	    18.735
   9.060        206.67	    15.748
   9.080        106.67	    11.314
   9.100         91.67	    10.488
   9.120         89.17	    10.344
   9.140         80.00	     9.798
   9.160         74.17	     9.434
   9.180         75.00	     9.487
   9.200         70.83	     9.220
   9.220         75.00	     9.487
   9.240         72.50	     9.327
   9.260         83.33	    10.000
   9.280         84.17	    10.050
   9.300         80.83	     9.849
   9.320         80.00	     9.798
   9.340         90.83	    10.440
   9.360         54.17	     8.062
   9.380         68.33	     9.055
   9.400         60.83	     8.544
   9.420         69.17	     9.110
   9.440         75.00	     9.487
   9.460         65.00	     8.832
   9.480         69.17	     9.110
   9.500         67.50	     9.000
   9.520         67.50	     9.000
   9.540         76.67	     9.592
   9.560         81.67	     9.899
   9.580         72.50	     9.327
   9.600         75.00	     9.487
   9.620         71.67	     9.274
   9.640         54.17	     8.062
   9.660         70.00	     9.165
   9.680         59.17	     8.426
   9.700         48.33	     7.616
   9.720         60.83	     8.544
   9.740         42.50	     7.141
   9.760         53.33	     8.000
   9.780         52.50	     7.937
   9.800         49.17	     7.681
   9.820         64.17	     8.775
   9.840         55.83	     8.185
   9.860         61.67	     8.602
   9.880         57.50	     8.307
   9.900         62.50	     8.660
   9.920         57.50	     8.307
   9.940         47.50	     7.550
   9.960         55.00	     8.124
   9.980         60.00	     8.485
  10.000         49.17	     7.681
  10.020         65.00	     8.832
  10.040         52.50	     7.937
  10.060         50.00	     7.746
  10.080         41.67	     7.071
  10.100         47.50	     7.550
  10.120         60.00	     8.485
  10.140         65.00	     8.832
  10.160         61.67	     8.602
  10.180         60.00	     8.485
  10.200         63.33	     8.718
  10.220         61.67	     8.602
  10.240         49.17	     7.681
  10.260         49.17	     7.681
  10.280         59.17	     8.426
  10.300         53.33	     8.000
  10.320         45.00	     7.348
  10.340         45.83	     7.416
  10.360         55.00	     8.124
  10.380         58.33	     8.367
  10.400         49.17	     7.681
  10.420         56.67	     8.246
  10.440         54.17	     8.062
  10.460         61.67	     8.602
  10.480         56.67	     8.246
  10.500         48.33	     7.616
  10.520         49.17	     7.681
  10.540         56.67	     8.246
  10.560         55.00	     8.124
  10.580         54.17	     8.062
  10.600         69.17	     9.110
  10.620         77.50	     9.644
  10.640         71.67	     9.274
  10.660         98.33	    10.863
  10.680        124.17	    12.207
  10.700        140.00	    12.961
  10.720         95.83	    10.724
  10.740         60.00	     8.485
  10.760         65.83	     8.888
  10.780         40.00	     6.928
  10.800         56.67	     8.246
  10.820         44.17	     7.280
  10.840         42.50	     7.141
  10.860         46.67	     7.483
  10.880         50.00	     7.746
  10.900         50.00	     7.746
  10.920         45.00	     7.348
  10.940         60.00	     8.485
  10.960         47.50	     7.550
  10.980         48.33	     7.616
  11.000         48.33	     7.616
  11.020         39.17	     6.856
  11.040         46.67	     7.483
  11.060         47.50	     7.550
  11.080         43.33	     7.211
  11.100         52.50	     7.937
  11.120         50.83	     7.810
  11.140         55.83	     8.185
  11.160         53.33	     8.000
  11.180         50.00	     7.746
  11.200         55.00	     8.124
  11.220         42.50	     7.141
  11.240         39.17	     6.856
  11.260         50.00	     7.746
  11.280         42.50	     7.141
  11.300         51.67	     7.874
  11.320         54.17	     8.062
  11.340         45.83	     7.416
  11.360         47.50	     7.550
  11.380         47.50	     7.550
  11.400         36.67	     6.633
  11.420         39.17	     6.856
  11.440         51.67	     7.874
  11.460         45.00	     7.348
  11.480         45.00	     7.348
  11.500         52.50	     7.937
  11.520         58.33	     8.367
  11.540         37.50	     6.708
  11.560         47.50	     7.550
  11.580         48.33	     7.616
  11.600         37.50	     6.708
  11.620         53.33	     8.000
  11.640         48.33	     7.616
  11.660         42.50	     7.141
  11.680         41.67	     7.071
  11.700         43.33	     7.211
  11.720         48.33	     7.616
  11.740         51.67	     7.874
  11.760         35.83	     6.557
  11.780         60.83	     8.544
  11.800         55.83	     8.185
  11.820         49.17	     7.681
  11.840         50.83	     7.810
  11.860         50.00	     7.746
  11.880         43.33	     7.211
  11.900         51.67	     7.874
  11.920         53.33	     8.000
  11.940         45.00	     7.348
  11.960         50.00	     7.746
  11.980         42.50	     7.141
  12.000         48.33	     7.616
  12.020         49.17	     7.681
  12.040         45.00	     7.348
  12.060         61.67	     8.602
  12.080         50.00	     7.746
  12.100         60.83	     8.544
  12.120         58.33	     8.367
  12.140         67.50	     9.000
  12.160         68.33	     9.055
  12.180         94.17	    10.630
  12.200        113.33	    11.662
  12.220        110.83	    11.533
  12.240        126.67	    12.329
  12.260        184.17	    14.866
  12.280        230.00	    16.613
  12.300        249.17	    17.292
  12.320        269.17	    17.972
  12.340        290.83	    18.682
  12.360        240.83	    17.000
  12.380        185.83	    14.933
