
Filename:
	C:\Program Files\Thermo Electron\WinXRD\Datafiles\F_HERMAN\FIEN\11_AUG_P_RT.raw

File Created:
	January 24, 2019 - 01:59 PM

Specimen Id:
	11 AUG P FT

Specimen Name:
	

Specimen Description:
	

Comment:
Scan Type: 2Theta Scan
Start Angle: 1 deg.
Stop Angle: 65 deg.
Num Points: 3201
Step Size: 0.02 deg.
Scan Rate: 1.000000
Scan Mode: Continuous
Wavelength: 1.540562
\Kalpha1: 1.540562	\Kalpha2: 1.544390	\Kbeta: 1.392218

Optics:
		Detector:
			 Type: Fixed Slits
		Tube: 
			 Type: Fixed Slits


Datas:
 Pos [deg]       Rate [CPS]      ESD [-]

Range 1 ---> Iteration 1
   1.000        870.00	    32.311
   1.020        886.67	    32.619
   1.040        673.33	    28.425
   1.060        625.00	    27.386
   1.080        563.33	    26.000
   1.100        512.50	    24.799
   1.120        440.83	    23.000
   1.140        390.83	    21.656
   1.160        471.67	    23.791
   1.180        432.50	    22.782
   1.200        396.67	    21.817
   1.220        407.50	    22.113
   1.240        419.17	    22.428
   1.260        427.50	    22.650
   1.280        530.83	    25.239
   1.300        614.17	    27.148
   1.320        618.33	    27.240
   1.340        893.33	    32.741
   1.360       1111.67	    36.524
   1.380       1227.50	    38.380
   1.400       1422.50	    41.316
   1.420       1327.50	    39.912
   1.440       1355.83	    40.336
   1.460       1341.67	    40.125
   1.480       1282.50	    39.230
   1.500       1231.67	    38.445
   1.520       1150.00	    37.148
   1.540       1195.83	    37.881
   1.560       1153.33	    37.202
   1.580       1029.17	    35.143
   1.600       1023.33	    35.043
   1.620       1014.17	    34.886
   1.640        982.50	    34.337
   1.660        910.83	    33.061
   1.680        919.17	    33.211
   1.700        839.17	    31.733
   1.720        774.17	    30.480
   1.740        651.67	    27.964
   1.760        675.00	    28.460
   1.780        620.83	    27.295
   1.800        565.00	    26.038
   1.820        557.50	    25.865
   1.840        564.17	    26.019
   1.860        526.67	    25.140
   1.880        518.33	    24.940
   1.900        510.83	    24.759
   1.920        510.83	    24.759
   1.940        522.50	    25.040
   1.960        472.50	    23.812
   1.980        450.00	    23.238
   2.000        482.50	    24.062
   2.020        461.67	    23.537
   2.040        436.67	    22.891
   2.060        435.00	    22.847
   2.080        450.00	    23.238
   2.100        444.17	    23.087
   2.120        457.50	    23.431
   2.140        419.17	    22.428
   2.160        380.00	    21.354
   2.180        402.50	    21.977
   2.200        410.00	    22.181
   2.220        381.67	    21.401
   2.240        408.33	    22.136
   2.260        374.17	    21.190
   2.280        378.33	    21.307
   2.300        384.17	    21.471
   2.320        356.67	    20.688
   2.340        359.17	    20.761
   2.360        367.50	    21.000
   2.380        333.33	    20.000
   2.400        360.00	    20.785
   2.420        361.67	    20.833
   2.440        345.83	    20.372
   2.460        308.33	    19.235
   2.480        323.33	    19.698
   2.500        325.00	    19.748
   2.520        313.33	    19.391
   2.540        330.00	    19.900
   2.560        332.50	    19.975
   2.580        317.50	    19.519
   2.600        305.83	    19.157
   2.620        308.33	    19.235
   2.640        295.00	    18.815
   2.660        323.33	    19.698
   2.680        291.67	    18.708
   2.700        303.33	    19.079
   2.720        288.33	    18.601
   2.740        290.83	    18.682
   2.760        274.17	    18.138
   2.780        306.67	    19.183
   2.800        300.00	    18.974
   2.820        280.00	    18.330
   2.840        302.50	    19.053
   2.860        254.17	    17.464
   2.880        262.50	    17.748
   2.900        292.50	    18.735
   2.920        275.83	    18.193
   2.940        281.67	    18.385
   2.960        255.83	    17.521
   2.980        258.33	    17.607
   3.000        259.17	    17.635
   3.020        246.67	    17.205
   3.040        256.67	    17.550
   3.060        277.50	    18.248
   3.080        244.17	    17.117
   3.100        230.00	    16.613
   3.120        279.17	    18.303
   3.140        251.67	    17.378
   3.160        224.17	    16.401
   3.180        237.50	    16.882
   3.200        235.83	    16.823
   3.220        215.83	    16.093
   3.240        232.50	    16.703
   3.260        240.83	    17.000
   3.280        242.50	    17.059
   3.300        210.83	    15.906
   3.320        220.83	    16.279
   3.340        227.50	    16.523
   3.360        203.33	    15.620
   3.380        240.83	    17.000
   3.400        200.83	    15.524
   3.420        217.50	    16.155
   3.440        203.33	    15.620
   3.460        249.17	    17.292
   3.480        230.00	    16.613
   3.500        228.33	    16.553
   3.520        215.00	    16.062
   3.540        193.33	    15.232
   3.560        225.00	    16.432
   3.580        211.67	    15.937
   3.600        210.00	    15.875
   3.620        209.17	    15.843
   3.640        208.33	    15.811
   3.660        192.50	    15.199
   3.680        165.00	    14.071
   3.700        214.17	    16.031
   3.720        180.00	    14.697
   3.740        200.00	    15.492
   3.760        219.17	    16.217
   3.780        218.33	    16.186
   3.800        222.50	    16.340
   3.820        201.67	    15.556
   3.840        173.33	    14.422
   3.860        181.67	    14.765
   3.880        189.17	    15.067
   3.900        198.33	    15.427
   3.920        185.83	    14.933
   3.940        191.67	    15.166
   3.960        200.00	    15.492
   3.980        191.67	    15.166
   4.000        190.83	    15.133
   4.020        186.67	    14.967
   4.040        182.50	    14.799
   4.060        215.00	    16.062
   4.080        182.50	    14.799
   4.100        190.83	    15.133
   4.120        182.50	    14.799
   4.140        180.00	    14.697
   4.160        197.50	    15.395
   4.180        165.00	    14.071
   4.200        181.67	    14.765
   4.220        200.83	    15.524
   4.240        178.33	    14.629
   4.260        183.33	    14.832
   4.280        160.83	    13.892
   4.300        158.33	    13.784
   4.320        165.00	    14.071
   4.340        180.00	    14.697
   4.360        143.33	    13.115
   4.380        163.33	    14.000
   4.400        151.67	    13.491
   4.420        172.50	    14.387
   4.440        165.00	    14.071
   4.460        135.83	    12.767
   4.480        168.33	    14.213
   4.500        172.50	    14.387
   4.520        165.00	    14.071
   4.540        168.33	    14.213
   4.560        155.83	    13.675
   4.580        160.00	    13.856
   4.600        165.00	    14.071
   4.620        173.33	    14.422
   4.640        139.17	    12.923
   4.660        165.00	    14.071
   4.680        170.83	    14.318
   4.700        153.33	    13.565
   4.720        170.00	    14.283
   4.740        155.83	    13.675
   4.760        153.33	    13.565
   4.780        163.33	    14.000
   4.800        164.17	    14.036
   4.820        140.83	    13.000
   4.840        140.83	    13.000
   4.860        146.67	    13.266
   4.880        141.67	    13.038
   4.900        155.83	    13.675
   4.920        159.17	    13.820
   4.940        155.00	    13.638
   4.960        157.50	    13.748
   4.980        150.00	    13.416
   5.000        135.83	    12.767
   5.020        129.17	    12.450
   5.040        142.50	    13.077
   5.060        143.33	    13.115
   5.080        140.83	    13.000
   5.100        147.50	    13.304
   5.120        158.33	    13.784
   5.140        140.00	    12.961
   5.160        129.17	    12.450
   5.180        105.83	    11.269
   5.200        130.00	    12.490
   5.220        150.83	    13.454
   5.240        130.83	    12.530
   5.260        145.83	    13.229
   5.280        135.83	    12.767
   5.300        134.17	    12.689
   5.320        136.67	    12.806
   5.340        134.17	    12.689
   5.360        137.50	    12.845
   5.380        161.67	    13.928
   5.400        137.50	    12.845
   5.420        145.83	    13.229
   5.440        143.33	    13.115
   5.460        115.00	    11.747
   5.480        126.67	    12.329
   5.500        145.00	    13.191
   5.520        146.67	    13.266
   5.540        134.17	    12.689
   5.560        131.67	    12.570
   5.580        133.33	    12.649
   5.600        159.17	    13.820
   5.620        126.67	    12.329
   5.640        139.17	    12.923
   5.660        140.83	    13.000
   5.680        133.33	    12.649
   5.700        136.67	    12.806
   5.720        138.33	    12.884
   5.740        131.67	    12.570
   5.760        120.00	    12.000
   5.780        133.33	    12.649
   5.800        125.83	    12.288
   5.820        136.67	    12.806
   5.840        131.67	    12.570
   5.860        143.33	    13.115
   5.880        150.83	    13.454
   5.900        135.83	    12.767
   5.920        165.83	    14.107
   5.940        157.50	    13.748
   5.960        127.50	    12.369
   5.980        141.67	    13.038
   6.000        153.33	    13.565
   6.020        165.83	    14.107
   6.040        190.83	    15.133
   6.060        191.67	    15.166
   6.080        210.83	    15.906
   6.100        268.33	    17.944
   6.120        305.83	    19.157
   6.140        325.00	    19.748
   6.160        360.00	    20.785
   6.180        395.00	    21.772
   6.200        398.33	    21.863
   6.220        370.83	    21.095
   6.240        314.17	    19.416
   6.260        264.17	    17.804
   6.280        190.83	    15.133
   6.300        165.83	    14.107
   6.320        160.00	    13.856
   6.340        165.00	    14.071
   6.360        165.83	    14.107
   6.380        155.83	    13.675
   6.400        139.17	    12.923
   6.420        150.00	    13.416
   6.440        161.67	    13.928
   6.460        135.83	    12.767
   6.480        121.67	    12.083
   6.500        129.17	    12.450
   6.520        138.33	    12.884
   6.540        125.83	    12.288
   6.560        144.17	    13.153
   6.580        149.17	    13.379
   6.600        131.67	    12.570
   6.620        127.50	    12.369
   6.640        118.33	    11.916
   6.660        129.17	    12.450
   6.680        131.67	    12.570
   6.700        130.00	    12.490
   6.720        111.67	    11.576
   6.740        124.17	    12.207
   6.760        109.17	    11.446
   6.780        120.00	    12.000
   6.800        120.83	    12.042
   6.820        110.00	    11.489
   6.840        115.00	    11.747
   6.860        130.00	    12.490
   6.880        108.33	    11.402
   6.900        110.00	    11.489
   6.920        117.50	    11.874
   6.940        119.17	    11.958
   6.960        119.17	    11.958
   6.980        112.50	    11.619
   7.000        125.00	    12.247
   7.020        125.83	    12.288
   7.040        108.33	    11.402
   7.060        118.33	    11.916
   7.080        130.00	    12.490
   7.100         91.67	    10.488
   7.120        124.17	    12.207
   7.140        121.67	    12.083
   7.160        105.83	    11.269
   7.180        110.83	    11.533
   7.200        121.67	    12.083
   7.220        111.67	    11.576
   7.240        114.17	    11.705
   7.260        118.33	    11.916
   7.280        107.50	    11.358
   7.300        117.50	    11.874
   7.320        110.00	    11.489
   7.340        115.83	    11.790
   7.360        116.67	    11.832
   7.380         97.50	    10.817
   7.400        101.67	    11.045
   7.420        112.50	    11.619
   7.440        125.83	    12.288
   7.460        108.33	    11.402
   7.480        108.33	    11.402
   7.500        100.83	    11.000
   7.520        107.50	    11.358
   7.540        118.33	    11.916
   7.560         86.67	    10.198
   7.580        123.33	    12.166
   7.600        106.67	    11.314
   7.620         95.00	    10.677
   7.640         91.67	    10.488
   7.660        111.67	    11.576
   7.680         98.33	    10.863
   7.700        100.83	    11.000
   7.720        109.17	    11.446
   7.740        107.50	    11.358
   7.760        102.50	    11.091
   7.780        109.17	    11.446
   7.800        110.83	    11.533
   7.820        100.83	    11.000
   7.840        107.50	    11.358
   7.860         89.17	    10.344
   7.880        101.67	    11.045
   7.900        101.67	    11.045
   7.920        120.00	    12.000
   7.940         92.50	    10.536
   7.960        104.17	    11.180
   7.980        105.83	    11.269
   8.000        120.00	    12.000
   8.020        108.33	    11.402
   8.040         90.00	    10.392
   8.060        100.00	    10.954
   8.080        100.00	    10.954
   8.100        100.00	    10.954
   8.120        100.83	    11.000
   8.140        105.83	    11.269
   8.160         92.50	    10.536
   8.180         94.17	    10.630
   8.200         97.50	    10.817
   8.220         87.50	    10.247
   8.240        101.67	    11.045
   8.260        110.00	    11.489
   8.280         85.00	    10.100
   8.300        117.50	    11.874
   8.320         95.00	    10.677
   8.340        120.83	    12.042
   8.360        120.00	    12.000
   8.380        112.50	    11.619
   8.400        105.83	    11.269
   8.420        106.67	    11.314
   8.440         91.67	    10.488
   8.460        115.83	    11.790
   8.480        120.00	    12.000
   8.500        117.50	    11.874
   8.520        123.33	    12.166
   8.540        120.83	    12.042
   8.560        120.00	    12.000
   8.580        124.17	    12.207
   8.600        158.33	    13.784
   8.620        153.33	    13.565
   8.640        152.50	    13.528
   8.660        178.33	    14.629
   8.680        185.83	    14.933
   8.700        255.83	    17.521
   8.720        319.17	    19.570
   8.740        393.33	    21.726
   8.760        373.33	    21.166
   8.780        411.67	    22.226
   8.800        525.83	    25.120
   8.820        620.83	    27.295
   8.840        710.00	    29.189
   8.860        915.00	    33.136
   8.880        917.50	    33.181
   8.900        643.33	    27.785
   8.920        365.83	    20.952
   8.940        213.33	    16.000
   8.960        153.33	    13.565
   8.980        137.50	    12.845
   9.000        103.33	    11.136
   9.020        110.83	    11.533
   9.040        113.33	    11.662
   9.060        113.33	    11.662
   9.080        117.50	    11.874
   9.100        117.50	    11.874
   9.120        110.83	    11.533
   9.140        131.67	    12.570
   9.160        142.50	    13.077
   9.180        161.67	    13.928
   9.200        162.50	    13.964
   9.220        100.83	    11.000
   9.240        111.67	    11.576
   9.260        110.83	    11.533
   9.280         96.67	    10.770
   9.300         87.50	    10.247
   9.320        102.50	    11.091
   9.340        111.67	    11.576
   9.360        106.67	    11.314
   9.380        114.17	    11.705
   9.400        110.83	    11.533
   9.420        113.33	    11.662
   9.440        139.17	    12.923
   9.460        116.67	    11.832
   9.480        100.00	    10.954
   9.500         92.50	    10.536
   9.520         85.83	    10.149
   9.540         85.83	    10.149
   9.560         85.00	    10.100
   9.580         79.17	     9.747
   9.600         86.67	    10.198
   9.620         72.50	     9.327
   9.640        102.50	    11.091
   9.660         83.33	    10.000
   9.680         96.67	    10.770
   9.700         94.17	    10.630
   9.720        107.50	    11.358
   9.740         92.50	    10.536
   9.760         98.33	    10.863
   9.780         76.67	     9.592
   9.800         95.83	    10.724
   9.820        101.67	    11.045
   9.840         85.83	    10.149
   9.860         85.00	    10.100
   9.880         69.17	     9.110
   9.900         87.50	    10.247
   9.920         89.17	    10.344
   9.940         72.50	     9.327
   9.960         80.00	     9.798
   9.980         88.33	    10.296
  10.000         70.83	     9.220
  10.020         79.17	     9.747
  10.040         76.67	     9.592
  10.060         77.50	     9.644
  10.080         79.17	     9.747
  10.100         79.17	     9.747
  10.120         87.50	    10.247
  10.140         83.33	    10.000
  10.160         86.67	    10.198
  10.180         76.67	     9.592
  10.200         81.67	     9.899
  10.220         94.17	    10.630
  10.240         73.33	     9.381
  10.260         80.83	     9.849
  10.280         77.50	     9.644
  10.300         72.50	     9.327
  10.320         75.00	     9.487
  10.340         80.83	     9.849
  10.360         97.50	    10.817
  10.380         84.17	    10.050
  10.400        115.83	    11.790
  10.420        135.00	    12.728
  10.440        136.67	    12.806
  10.460        190.00	    15.100
  10.480        251.67	    17.378
  10.500        279.17	    18.303
  10.520        236.67	    16.852
  10.540        160.00	    13.856
  10.560        135.00	    12.728
  10.580        115.83	    11.790
  10.600         92.50	    10.536
  10.620         88.33	    10.296
  10.640         88.33	    10.296
  10.660         80.83	     9.849
  10.680        107.50	    11.358
  10.700         75.83	     9.539
  10.720         76.67	     9.592
  10.740         70.83	     9.220
  10.760         87.50	    10.247
  10.780         80.83	     9.849
  10.800         78.33	     9.695
  10.820         65.00	     8.832
  10.840         87.50	    10.247
  10.860         69.17	     9.110
  10.880         88.33	    10.296
  10.900         80.00	     9.798
  10.920         77.50	     9.644
  10.940         73.33	     9.381
  10.960         87.50	    10.247
  10.980         94.17	    10.630
  11.000         66.67	     8.944
  11.020         82.50	     9.950
  11.040         73.33	     9.381
  11.060         75.00	     9.487
  11.080         78.33	     9.695
  11.100         81.67	     9.899
  11.120         69.17	     9.110
  11.140         86.67	    10.198
  11.160         83.33	    10.000
  11.180         75.00	     9.487
  11.200         70.00	     9.165
  11.220         64.17	     8.775
  11.240         80.00	     9.798
  11.260         90.00	    10.392
  11.280         71.67	     9.274
  11.300         65.00	     8.832
  11.320         79.17	     9.747
  11.340         70.83	     9.220
  11.360         79.17	     9.747
  11.380         71.67	     9.274
  11.400         78.33	     9.695
  11.420         83.33	    10.000
  11.440         71.67	     9.274
  11.460         60.83	     8.544
  11.480         85.00	    10.100
  11.500         80.00	     9.798
  11.520         81.67	     9.899
  11.540         84.17	    10.050
  11.560         70.00	     9.165
  11.580         71.67	     9.274
  11.600         80.00	     9.798
  11.620         75.83	     9.539
  11.640         78.33	     9.695
  11.660         80.00	     9.798
  11.680         72.50	     9.327
  11.700         75.83	     9.539
  11.720         75.00	     9.487
  11.740         72.50	     9.327
  11.760         75.00	     9.487
  11.780         75.83	     9.539
  11.800         71.67	     9.274
  11.820         60.83	     8.544
  11.840         73.33	     9.381
  11.860         70.83	     9.220
  11.880         72.50	     9.327
  11.900         69.17	     9.110
  11.920         79.17	     9.747
  11.940         85.83	    10.149
  11.960         93.33	    10.583
  11.980        102.50	    11.091
  12.000         94.17	    10.630
  12.020         98.33	    10.863
  12.040        102.50	    11.091
  12.060        141.67	    13.038
  12.080        161.67	    13.928
  12.100        204.17	    15.652
  12.120        223.33	    16.371
  12.140        307.50	    19.209
  12.160        359.17	    20.761
  12.180        411.67	    22.226
  12.200        365.83	    20.952
  12.220        232.50	    16.703
  12.240        170.00	    14.283
  12.260        148.33	    13.342
  12.280        155.83	    13.675
  12.300        180.83	    14.731
  12.320        175.00	    14.491
  12.340        189.17	    15.067
  12.360        178.33	    14.629
  12.380        192.50	    15.199
  12.400        204.17	    15.652
