
Filename:
	C:\Program Files\Thermo Electron\WinXRD\Datafiles\F_HERMAN\FIEN\11_A_FT.raw

File Created:
	October 01, 2019 - 04:13 PM

Specimen Id:
	11A FT

Specimen Name:
	

Specimen Description:
	

Comment:
Scan Type: 2Theta Scan
Start Angle: 1 deg.
Stop Angle: 65 deg.
Num Points: 3201
Step Size: 0.02 deg.
Scan Rate: 1.000000
Scan Mode: Continuous
Wavelength: 1.540562
\Kalpha1: 1.540562	\Kalpha2: 1.544390	\Kbeta: 1.392218

Optics:
		Detector:
			 Type: Fixed Slits
		Tube: 
			 Type: Fixed Slits


Datas:
 Pos [deg]       Rate [CPS]      ESD [-]

Range 1 ---> Iteration 1
   1.000          0.00	     0.000
   1.020          0.00	     0.000
   1.040          0.00	     0.000
   1.060          0.00	     0.000
   1.080          0.00	     0.000
   1.100        174.17	    14.457
   1.120          0.00	     0.000
   1.140        548.33	    25.652
   1.160        680.83	    28.583
   1.180        319.17	    19.570
   1.200        232.50	    16.703
   1.220        188.33	    15.033
   1.240        296.67	    18.868
   1.260        305.00	    19.131
   1.280        305.00	    19.131
   1.300        340.00	    20.199
   1.320        306.67	    19.183
   1.340        333.33	    20.000
   1.360        274.17	    18.138
   1.380        430.00	    22.716
   1.400        533.33	    25.298
   1.420        740.83	    29.816
   1.440        819.17	    31.353
   1.460       1315.83	    39.737
   1.480       1999.17	    48.980
   1.500       2421.67	    53.907
   1.520       2520.83	    55.000
   1.540       2654.17	    56.436
   1.560       2339.17	    52.981
   1.580       2506.67	    54.845
   1.600       2345.00	    53.047
   1.620       2408.33	    53.759
   1.640       2284.17	    52.355
   1.660       2353.33	    53.141
   1.680       2227.50	    51.701
   1.700       2254.17	    52.010
   1.720       2069.17	    49.830
   1.740       2209.17	    51.488
   1.760       2011.67	    49.132
   1.780       2046.67	    49.558
   1.800       1840.00	    46.989
   1.820       1717.50	    45.398
   1.840       1559.17	    43.255
   1.860       1441.67	    41.593
   1.880       1205.83	    38.039
   1.900       1089.17	    36.152
   1.920        942.50	    33.630
   1.940        842.50	    31.796
   1.960        751.67	    30.033
   1.980        747.50	    29.950
   2.000        668.33	    28.320
   2.020        695.00	    28.879
   2.040        699.17	    28.965
   2.060        656.67	    28.071
   2.080        616.67	    27.203
   2.100        638.33	    27.677
   2.120        670.83	    28.373
   2.140        655.83	    28.054
   2.160        590.83	    26.627
   2.180        593.33	    26.683
   2.200        608.33	    27.019
   2.220        582.50	    26.439
   2.240        577.50	    26.325
   2.260        577.50	    26.325
   2.280        542.50	    25.515
   2.300        568.33	    26.115
   2.320        528.33	    25.179
   2.340        563.33	    26.000
   2.360        539.17	    25.436
   2.380        519.17	    24.960
   2.400        525.00	    25.100
   2.420        535.00	    25.338
   2.440        504.17	    24.597
   2.460        480.83	    24.021
   2.480        455.00	    23.367
   2.500        480.00	    24.000
   2.520        518.33	    24.940
   2.540        480.83	    24.021
   2.560        465.83	    23.643
   2.580        482.50	    24.062
   2.600        471.67	    23.791
   2.620        470.83	    23.770
   2.640        475.00	    23.875
   2.660        486.67	    24.166
   2.680        432.50	    22.782
   2.700        434.17	    22.825
   2.720        447.50	    23.173
   2.740        441.67	    23.022
   2.760        393.33	    21.726
   2.780        445.83	    23.130
   2.800        413.33	    22.271
   2.820        402.50	    21.977
   2.840        400.83	    21.932
   2.860        386.67	    21.541
   2.880        434.17	    22.825
   2.900        392.50	    21.703
   2.920        430.83	    22.738
   2.940        412.50	    22.249
   2.960        407.50	    22.113
   2.980        366.67	    20.976
   3.000        382.50	    21.424
   3.020        363.33	    20.881
   3.040        418.33	    22.405
   3.060        384.17	    21.471
   3.080        380.83	    21.378
   3.100        362.50	    20.857
   3.120        377.50	    21.284
   3.140        367.50	    21.000
   3.160        370.83	    21.095
   3.180        365.00	    20.928
   3.200        341.67	    20.248
   3.220        353.33	    20.591
   3.240        353.33	    20.591
   3.260        342.50	    20.273
   3.280        355.00	    20.640
   3.300        344.17	    20.322
   3.320        328.33	    19.849
   3.340        337.50	    20.125
   3.360        290.83	    18.682
   3.380        348.33	    20.445
   3.400        326.67	    19.799
   3.420        351.67	    20.543
   3.440        310.00	    19.287
   3.460        306.67	    19.183
   3.480        308.33	    19.235
   3.500        296.67	    18.868
   3.520        304.17	    19.105
   3.540        300.83	    19.000
   3.560        333.33	    20.000
   3.580        324.17	    19.723
   3.600        287.50	    18.574
   3.620        314.17	    19.416
   3.640        299.17	    18.947
   3.660        328.33	    19.849
   3.680        305.83	    19.157
   3.700        302.50	    19.053
   3.720        292.50	    18.735
   3.740        315.83	    19.468
   3.760        305.00	    19.131
   3.780        286.67	    18.547
   3.800        295.83	    18.841
   3.820        305.83	    19.157
   3.840        275.00	    18.166
   3.860        255.83	    17.521
   3.880        271.67	    18.055
   3.900        267.50	    17.916
   3.920        277.50	    18.248
   3.940        299.17	    18.947
   3.960        255.00	    17.493
   3.980        320.00	    19.596
   4.000        298.33	    18.921
   4.020        275.00	    18.166
   4.040        241.67	    17.029
   4.060        251.67	    17.378
   4.080        235.83	    16.823
   4.100        246.67	    17.205
   4.120        279.17	    18.303
   4.140        278.33	    18.276
   4.160        257.50	    17.578
   4.180        263.33	    17.776
   4.200        266.67	    17.889
   4.220        255.00	    17.493
   4.240        227.50	    16.523
   4.260        228.33	    16.553
   4.280        262.50	    17.748
   4.300        267.50	    17.916
   4.320        253.33	    17.436
   4.340        235.00	    16.793
   4.360        300.00	    18.974
   4.380        242.50	    17.059
   4.400        225.83	    16.462
   4.420        232.50	    16.703
   4.440        216.67	    16.125
   4.460        241.67	    17.029
   4.480        238.33	    16.912
   4.500        212.50	    15.969
   4.520        250.00	    17.321
   4.540        228.33	    16.553
   4.560        242.50	    17.059
   4.580        217.50	    16.155
   4.600        236.67	    16.852
   4.620        205.83	    15.716
   4.640        220.00	    16.248
   4.660        225.00	    16.432
   4.680        246.67	    17.205
   4.700        202.50	    15.588
   4.720        224.17	    16.401
   4.740        212.50	    15.969
   4.760        226.67	    16.492
   4.780        206.67	    15.748
   4.800        205.00	    15.684
   4.820        203.33	    15.620
   4.840        243.33	    17.088
   4.860        199.17	    15.460
   4.880        195.83	    15.330
   4.900        230.83	    16.643
   4.920        200.83	    15.524
   4.940        213.33	    16.000
   4.960        198.33	    15.427
   4.980        206.67	    15.748
   5.000        185.00	    14.900
   5.020        219.17	    16.217
   5.040        195.83	    15.330
   5.060        230.00	    16.613
   5.080        210.00	    15.875
   5.100        208.33	    15.811
   5.120        190.83	    15.133
   5.140        208.33	    15.811
   5.160        185.83	    14.933
   5.180        200.00	    15.492
   5.200        184.17	    14.866
   5.220        197.50	    15.395
   5.240        193.33	    15.232
   5.260        216.67	    16.125
   5.280        187.50	    15.000
   5.300        210.83	    15.906
   5.320        193.33	    15.232
   5.340        180.00	    14.697
   5.360        178.33	    14.629
   5.380        181.67	    14.765
   5.400        197.50	    15.395
   5.420        196.67	    15.362
   5.440        209.17	    15.843
   5.460        187.50	    15.000
   5.480        190.83	    15.133
   5.500        223.33	    16.371
   5.520        194.17	    15.264
   5.540        197.50	    15.395
   5.560        212.50	    15.969
   5.580        222.50	    16.340
   5.600        215.83	    16.093
   5.620        224.17	    16.401
   5.640        296.67	    18.868
   5.660        261.67	    17.720
   5.680        303.33	    19.079
   5.700        332.50	    19.975
   5.720        304.17	    19.105
   5.740        345.83	    20.372
   5.760        351.67	    20.543
   5.780        289.17	    18.628
   5.800        248.33	    17.263
   5.820        235.00	    16.793
   5.840        240.00	    16.971
   5.860        232.50	    16.703
   5.880        212.50	    15.969
   5.900        229.17	    16.583
   5.920        247.50	    17.234
   5.940        227.50	    16.523
   5.960        215.83	    16.093
   5.980        231.67	    16.673
   6.000        210.00	    15.875
   6.020        235.00	    16.793
   6.040        220.00	    16.248
   6.060        200.83	    15.524
   6.080        190.83	    15.133
   6.100        190.83	    15.133
   6.120        180.00	    14.697
   6.140        165.83	    14.107
   6.160        191.67	    15.166
   6.180        180.00	    14.697
   6.200        173.33	    14.422
   6.220        190.00	    15.100
   6.240        162.50	    13.964
   6.260        176.67	    14.560
   6.280        170.00	    14.283
   6.300        194.17	    15.264
   6.320        234.17	    16.763
   6.340        220.83	    16.279
   6.360        212.50	    15.969
   6.380        221.67	    16.310
   6.400        176.67	    14.560
   6.420        196.67	    15.362
   6.440        197.50	    15.395
   6.460        213.33	    16.000
   6.480        168.33	    14.213
   6.500        171.67	    14.353
   6.520        131.67	    12.570
   6.540        160.83	    13.892
   6.560        156.67	    13.711
   6.580        145.83	    13.229
   6.600        157.50	    13.748
   6.620        147.50	    13.304
   6.640        141.67	    13.038
   6.660        159.17	    13.820
   6.680        165.00	    14.071
   6.700        158.33	    13.784
   6.720        156.67	    13.711
   6.740        150.00	    13.416
   6.760        126.67	    12.329
   6.780        114.17	    11.705
   6.800        134.17	    12.689
   6.820        150.00	    13.416
   6.840        156.67	    13.711
   6.860        137.50	    12.845
   6.880        169.17	    14.248
   6.900        142.50	    13.077
   6.920        134.17	    12.689
   6.940        145.83	    13.229
   6.960        135.83	    12.767
   6.980        138.33	    12.884
   7.000        157.50	    13.748
   7.020        148.33	    13.342
   7.040        135.83	    12.767
   7.060        138.33	    12.884
   7.080        140.83	    13.000
   7.100        145.83	    13.229
   7.120        142.50	    13.077
   7.140        143.33	    13.115
   7.160        140.00	    12.961
   7.180        146.67	    13.266
   7.200        130.83	    12.530
   7.220        127.50	    12.369
   7.240        132.50	    12.610
   7.260        143.33	    13.115
   7.280        148.33	    13.342
   7.300        138.33	    12.884
   7.320        150.83	    13.454
   7.340        125.00	    12.247
   7.360        125.83	    12.288
   7.380        125.83	    12.288
   7.400        132.50	    12.610
   7.420        115.00	    11.747
   7.440        112.50	    11.619
   7.460        139.17	    12.923
   7.480        115.00	    11.747
   7.500        137.50	    12.845
   7.520        132.50	    12.610
   7.540        115.83	    11.790
   7.560        117.50	    11.874
   7.580        123.33	    12.166
   7.600        125.83	    12.288
   7.620        139.17	    12.923
   7.640        119.17	    11.958
   7.660        132.50	    12.610
   7.680        116.67	    11.832
   7.700        116.67	    11.832
   7.720        110.00	    11.489
   7.740        115.00	    11.747
   7.760         96.67	    10.770
   7.780        132.50	    12.610
   7.800        130.00	    12.490
   7.820        108.33	    11.402
   7.840        125.00	    12.247
   7.860        128.33	    12.410
   7.880        110.83	    11.533
   7.900        140.00	    12.961
   7.920        129.17	    12.450
   7.940        125.83	    12.288
   7.960        125.00	    12.247
   7.980        115.00	    11.747
   8.000        137.50	    12.845
   8.020        135.83	    12.767
   8.040        137.50	    12.845
   8.060        117.50	    11.874
   8.080        142.50	    13.077
   8.100        107.50	    11.358
   8.120        114.17	    11.705
   8.140        130.00	    12.490
   8.160        124.17	    12.207
   8.180        119.17	    11.958
   8.200        125.83	    12.288
   8.220        115.00	    11.747
   8.240        136.67	    12.806
   8.260        128.33	    12.410
   8.280        127.50	    12.369
   8.300        136.67	    12.806
   8.320        147.50	    13.304
   8.340        124.17	    12.207
   8.360        144.17	    13.153
   8.380        124.17	    12.207
   8.400        158.33	    13.784
   8.420        166.67	    14.142
   8.440        155.00	    13.638
   8.460        177.50	    14.595
   8.480        192.50	    15.199
   8.500        223.33	    16.371
   8.520        283.33	    18.439
   8.540        347.50	    20.421
   8.560        281.67	    18.385
   8.580        264.17	    17.804
   8.600        309.17	    19.261
   8.620        319.17	    19.570
   8.640        318.33	    19.545
   8.660        273.33	    18.111
   8.680        242.50	    17.059
   8.700        265.83	    17.861
   8.720        210.00	    15.875
   8.740        179.17	    14.663
   8.760        149.17	    13.379
   8.780        140.83	    13.000
   8.800        126.67	    12.329
   8.820        136.67	    12.806
   8.840        150.00	    13.416
   8.860        149.17	    13.379
   8.880        173.33	    14.422
   8.900        172.50	    14.387
   8.920        171.67	    14.353
   8.940        209.17	    15.843
   8.960        204.17	    15.652
   8.980        243.33	    17.088
   9.000        265.83	    17.861
   9.020        258.33	    17.607
   9.040        389.17	    21.610
   9.060        470.00	    23.749
   9.080        448.33	    23.195
   9.100        268.33	    17.944
   9.120        191.67	    15.166
   9.140        136.67	    12.806
   9.160        114.17	    11.705
   9.180        109.17	    11.446
   9.200        112.50	    11.619
   9.220        118.33	    11.916
   9.240        134.17	    12.689
   9.260        109.17	    11.446
   9.280        122.50	    12.124
   9.300        136.67	    12.806
   9.320        157.50	    13.748
   9.340        163.33	    14.000
   9.360        242.50	    17.059
   9.380        219.17	    16.217
   9.400        206.67	    15.748
   9.420        120.83	    12.042
   9.440         96.67	    10.770
   9.460        107.50	    11.358
   9.480         85.83	    10.149
   9.500        119.17	    11.958
   9.520        103.33	    11.136
   9.540         86.67	    10.198
   9.560         95.00	    10.677
   9.580         94.17	    10.630
   9.600         92.50	    10.536
   9.620         97.50	    10.817
   9.640         91.67	    10.488
   9.660        103.33	    11.136
   9.680         85.83	    10.149
   9.700         88.33	    10.296
   9.720         77.50	     9.644
   9.740         75.00	     9.487
   9.760         78.33	     9.695
   9.780         88.33	    10.296
   9.800        100.83	    11.000
   9.820         68.33	     9.055
   9.840         82.50	     9.950
   9.860         83.33	    10.000
   9.880         99.17	    10.909
   9.900         98.33	    10.863
   9.920         74.17	     9.434
   9.940         91.67	    10.488
   9.960         74.17	     9.434
   9.980        102.50	    11.091
  10.000         89.17	    10.344
  10.020         92.50	    10.536
  10.040         93.33	    10.583
  10.060         77.50	     9.644
  10.080         90.83	    10.440
  10.100         93.33	    10.583
  10.120         74.17	     9.434
  10.140         89.17	    10.344
  10.160         81.67	     9.899
  10.180         85.83	    10.149
  10.200         84.17	    10.050
  10.220         90.00	    10.392
  10.240        100.00	    10.954
  10.260         95.83	    10.724
  10.280         92.50	    10.536
  10.300         87.50	    10.247
  10.320         94.17	    10.630
  10.340        101.67	    11.045
  10.360         75.83	     9.539
  10.380         80.00	     9.798
  10.400         73.33	     9.381
  10.420         89.17	    10.344
  10.440         95.83	    10.724
  10.460         73.33	     9.381
  10.480         86.67	    10.198
  10.500         80.83	     9.849
  10.520         80.00	     9.798
  10.540         85.83	    10.149
  10.560         81.67	     9.899
  10.580         95.83	    10.724
  10.600        105.83	    11.269
  10.620        130.00	    12.490
  10.640        131.67	    12.570
  10.660        153.33	    13.565
  10.680        145.83	    13.229
  10.700        124.17	    12.207
  10.720         78.33	     9.695
  10.740         88.33	    10.296
  10.760         97.50	    10.817
  10.780         82.50	     9.950
  10.800         69.17	     9.110
  10.820         72.50	     9.327
  10.840         87.50	    10.247
  10.860         80.00	     9.798
  10.880         65.00	     8.832
  10.900         67.50	     9.000
  10.920         90.83	    10.440
  10.940         62.50	     8.660
  10.960         62.50	     8.660
  10.980         74.17	     9.434
  11.000         74.17	     9.434
  11.020         79.17	     9.747
  11.040         73.33	     9.381
  11.060         66.67	     8.944
  11.080         60.00	     8.485
  11.100         62.50	     8.660
  11.120         64.17	     8.775
  11.140         61.67	     8.602
  11.160         69.17	     9.110
  11.180         56.67	     8.246
  11.200         66.67	     8.944
  11.220         66.67	     8.944
  11.240         77.50	     9.644
  11.260         62.50	     8.660
  11.280         66.67	     8.944
  11.300         70.83	     9.220
  11.320         66.67	     8.944
  11.340         80.83	     9.849
  11.360         75.83	     9.539
  11.380         67.50	     9.000
  11.400         69.17	     9.110
  11.420         64.17	     8.775
  11.440         60.83	     8.544
  11.460         70.83	     9.220
  11.480         50.00	     7.746
  11.500         72.50	     9.327
  11.520         62.50	     8.660
  11.540         66.67	     8.944
  11.560         79.17	     9.747
  11.580         71.67	     9.274
  11.600         76.67	     9.592
  11.620         62.50	     8.660
  11.640         68.33	     9.055
  11.660         72.50	     9.327
  11.680         86.67	    10.198
  11.700         89.17	    10.344
  11.720         70.00	     9.165
  11.740         54.17	     8.062
  11.760         61.67	     8.602
  11.780         75.83	     9.539
  11.800         61.67	     8.602
  11.820         71.67	     9.274
  11.840         74.17	     9.434
  11.860         70.00	     9.165
  11.880         71.67	     9.274
  11.900         91.67	    10.488
  11.920         90.83	    10.440
  11.940        106.67	    11.314
  11.960        101.67	    11.045
  11.980        109.17	    11.446
  12.000        115.00	    11.747
  12.020        110.00	    11.489
  12.040        101.67	    11.045
  12.060        101.67	    11.045
  12.080        103.33	    11.136
  12.100        115.83	    11.790
  12.120        114.17	    11.705
  12.140        125.83	    12.288
  12.160        128.33	    12.410
  12.180        146.67	    13.266
  12.200        184.17	    14.866
  12.220        248.33	    17.263
  12.240        309.17	    19.261
  12.260        323.33	    19.698
  12.280        315.83	    19.468
  12.300        314.17	    19.416
  12.320        333.33	    20.000
  12.340        343.33	    20.298
  12.360        360.00	    20.785
  12.380        350.00	    20.494
  12.400        341.67	    20.248
