
Filename:
	C:\Program Files\Thermo Electron\WinXRD\Datafiles\F_HERMAN\FIEN\13_2_AUG_P_RT.raw

File Created:
	January 23, 2019 - 02:37 PM

Specimen Id:
	13.2 AUG  SUPPORT P FT

Specimen Name:
	

Specimen Description:
	

Comment:
Scan Type: 2Theta Scan
Start Angle: 1 deg.
Stop Angle: 65 deg.
Num Points: 3201
Step Size: 0.02 deg.
Scan Rate: 1.000000
Scan Mode: Continuous
Wavelength: 1.540562
\Kalpha1: 1.540562	\Kalpha2: 1.544390	\Kbeta: 1.392218

Optics:
		Detector:
			 Type: Fixed Slits
		Tube: 
			 Type: Fixed Slits


Datas:
 Pos [deg]       Rate [CPS]      ESD [-]

Range 1 ---> Iteration 1
   1.000       1025.00	    35.071
   1.020        671.67	    28.390
   1.040        515.83	    24.880
   1.060        584.17	    26.476
   1.080        513.33	    24.819
   1.100        512.50	    24.799
   1.120        474.17	    23.854
   1.140        441.67	    23.022
   1.160        450.83	    23.259
   1.180        400.83	    21.932
   1.200        385.83	    21.517
   1.220        373.33	    21.166
   1.240        343.33	    20.298
   1.260        395.83	    21.794
   1.280        451.67	    23.281
   1.300        550.83	    25.710
   1.320        750.00	    30.000
   1.340        832.50	    31.607
   1.360       1006.67	    34.756
   1.380       1368.33	    40.522
   1.400       1413.33	    41.183
   1.420       1400.00	    40.988
   1.440       1299.17	    39.484
   1.460       1265.83	    38.974
   1.480       1166.67	    37.417
   1.500       1222.50	    38.301
   1.520       1189.17	    37.776
   1.540       1121.67	    36.688
   1.560       1075.83	    35.930
   1.580       1082.50	    36.042
   1.600       1065.83	    35.763
   1.620        996.67	    34.583
   1.640       1012.50	    34.857
   1.660        920.00	    33.226
   1.680        885.00	    32.588
   1.700        807.50	    31.129
   1.720        720.83	    29.411
   1.740        738.33	    29.766
   1.760        723.33	    29.462
   1.780        668.33	    28.320
   1.800        609.17	    27.037
   1.820        610.00	    27.055
   1.840        540.00	    25.456
   1.860        539.17	    25.436
   1.880        513.33	    24.819
   1.900        530.00	    25.219
   1.920        503.33	    24.576
   1.940        481.67	    24.042
   1.960        470.83	    23.770
   1.980        437.50	    22.913
   2.000        466.67	    23.664
   2.020        398.33	    21.863
   2.040        454.17	    23.345
   2.060        495.00	    24.372
   2.080        436.67	    22.891
   2.100        442.50	    23.043
   2.120        397.50	    21.840
   2.140        403.33	    22.000
   2.160        397.50	    21.840
   2.180        405.83	    22.068
   2.200        371.67	    21.119
   2.220        389.17	    21.610
   2.240        365.00	    20.928
   2.260        367.50	    21.000
   2.280        375.00	    21.213
   2.300        375.83	    21.237
   2.320        384.17	    21.471
   2.340        333.33	    20.000
   2.360        355.83	    20.664
   2.380        321.67	    19.647
   2.400        338.33	    20.149
   2.420        351.67	    20.543
   2.440        329.17	    19.875
   2.460        365.83	    20.952
   2.480        321.67	    19.647
   2.500        311.67	    19.339
   2.520        314.17	    19.416
   2.540        327.50	    19.824
   2.560        335.00	    20.050
   2.580        285.00	    18.493
   2.600        293.33	    18.762
   2.620        274.17	    18.138
   2.640        290.83	    18.682
   2.660        317.50	    19.519
   2.680        293.33	    18.762
   2.700        300.00	    18.974
   2.720        298.33	    18.921
   2.740        321.67	    19.647
   2.760        307.50	    19.209
   2.780        279.17	    18.303
   2.800        274.17	    18.138
   2.820        305.00	    19.131
   2.840        244.17	    17.117
   2.860        295.00	    18.815
   2.880        277.50	    18.248
   2.900        245.83	    17.176
   2.920        273.33	    18.111
   2.940        293.33	    18.762
   2.960        249.17	    17.292
   2.980        251.67	    17.378
   3.000        265.00	    17.833
   3.020        234.17	    16.763
   3.040        231.67	    16.673
   3.060        266.67	    17.889
   3.080        247.50	    17.234
   3.100        235.83	    16.823
   3.120        225.83	    16.462
   3.140        225.83	    16.462
   3.160        239.17	    16.941
   3.180        236.67	    16.852
   3.200        245.00	    17.146
   3.220        215.83	    16.093
   3.240        215.00	    16.062
   3.260        245.00	    17.146
   3.280        214.17	    16.031
   3.300        243.33	    17.088
   3.320        254.17	    17.464
   3.340        225.83	    16.462
   3.360        225.83	    16.462
   3.380        222.50	    16.340
   3.400        194.17	    15.264
   3.420        214.17	    16.031
   3.440        218.33	    16.186
   3.460        225.00	    16.432
   3.480        221.67	    16.310
   3.500        217.50	    16.155
   3.520        194.17	    15.264
   3.540        256.67	    17.550
   3.560        240.83	    17.000
   3.580        202.50	    15.588
   3.600        190.83	    15.133
   3.620        193.33	    15.232
   3.640        221.67	    16.310
   3.660        209.17	    15.843
   3.680        208.33	    15.811
   3.700        216.67	    16.125
   3.720        180.00	    14.697
   3.740        210.00	    15.875
   3.760        191.67	    15.166
   3.780        208.33	    15.811
   3.800        190.00	    15.100
   3.820        210.83	    15.906
   3.840        216.67	    16.125
   3.860        198.33	    15.427
   3.880        192.50	    15.199
   3.900        178.33	    14.629
   3.920        186.67	    14.967
   3.940        182.50	    14.799
   3.960        174.17	    14.457
   3.980        205.83	    15.716
   4.000        180.00	    14.697
   4.020        206.67	    15.748
   4.040        197.50	    15.395
   4.060        172.50	    14.387
   4.080        187.50	    15.000
   4.100        182.50	    14.799
   4.120        158.33	    13.784
   4.140        166.67	    14.142
   4.160        171.67	    14.353
   4.180        173.33	    14.422
   4.200        179.17	    14.663
   4.220        167.50	    14.177
   4.240        171.67	    14.353
   4.260        170.83	    14.318
   4.280        154.17	    13.601
   4.300        165.83	    14.107
   4.320        182.50	    14.799
   4.340        171.67	    14.353
   4.360        144.17	    13.153
   4.380        170.83	    14.318
   4.400        153.33	    13.565
   4.420        160.00	    13.856
   4.440        155.83	    13.675
   4.460        153.33	    13.565
   4.480        148.33	    13.342
   4.500        150.00	    13.416
   4.520        175.00	    14.491
   4.540        148.33	    13.342
   4.560        174.17	    14.457
   4.580        163.33	    14.000
   4.600        148.33	    13.342
   4.620        161.67	    13.928
   4.640        158.33	    13.784
   4.660        156.67	    13.711
   4.680        160.83	    13.892
   4.700        177.50	    14.595
   4.720        162.50	    13.964
   4.740        155.83	    13.675
   4.760        146.67	    13.266
   4.780        142.50	    13.077
   4.800        149.17	    13.379
   4.820        115.83	    11.790
   4.840        153.33	    13.565
   4.860        134.17	    12.689
   4.880        144.17	    13.153
   4.900        155.00	    13.638
   4.920        141.67	    13.038
   4.940        144.17	    13.153
   4.960        140.83	    13.000
   4.980        140.00	    12.961
   5.000        146.67	    13.266
   5.020        149.17	    13.379
   5.040        151.67	    13.491
   5.060        142.50	    13.077
   5.080        135.83	    12.767
   5.100        160.00	    13.856
   5.120        130.83	    12.530
   5.140        135.00	    12.728
   5.160        132.50	    12.610
   5.180        139.17	    12.923
   5.200        153.33	    13.565
   5.220        125.00	    12.247
   5.240        151.67	    13.491
   5.260        119.17	    11.958
   5.280        166.67	    14.142
   5.300        122.50	    12.124
   5.320        122.50	    12.124
   5.340        147.50	    13.304
   5.360        139.17	    12.923
   5.380        104.17	    11.180
   5.400        119.17	    11.958
   5.420        119.17	    11.958
   5.440        135.83	    12.767
   5.460        141.67	    13.038
   5.480        140.00	    12.961
   5.500        133.33	    12.649
   5.520        133.33	    12.649
   5.540        115.83	    11.790
   5.560        150.83	    13.454
   5.580        127.50	    12.369
   5.600        128.33	    12.410
   5.620        119.17	    11.958
   5.640        140.00	    12.961
   5.660        127.50	    12.369
   5.680        128.33	    12.410
   5.700        132.50	    12.610
   5.720        123.33	    12.166
   5.740        125.83	    12.288
   5.760        127.50	    12.369
   5.780        132.50	    12.610
   5.800        143.33	    13.115
   5.820        127.50	    12.369
   5.840        136.67	    12.806
   5.860        115.83	    11.790
   5.880        132.50	    12.610
   5.900        128.33	    12.410
   5.920        147.50	    13.304
   5.940        166.67	    14.142
   5.960        155.00	    13.638
   5.980        146.67	    13.266
   6.000        170.00	    14.283
   6.020        215.00	    16.062
   6.040        195.00	    15.297
   6.060        213.33	    16.000
   6.080        231.67	    16.673
   6.100        238.33	    16.912
   6.120        255.00	    17.493
   6.140        281.67	    18.385
   6.160        282.50	    18.412
   6.180        299.17	    18.947
   6.200        291.67	    18.708
   6.220        285.00	    18.493
   6.240        269.17	    17.972
   6.260        247.50	    17.234
   6.280        208.33	    15.811
   6.300        165.00	    14.071
   6.320        147.50	    13.304
   6.340        123.33	    12.166
   6.360        132.50	    12.610
   6.380        145.00	    13.191
   6.400        122.50	    12.124
   6.420        138.33	    12.884
   6.440        112.50	    11.619
   6.460        114.17	    11.705
   6.480        115.00	    11.747
   6.500        110.83	    11.533
   6.520        110.00	    11.489
   6.540        108.33	    11.402
   6.560        115.00	    11.747
   6.580        123.33	    12.166
   6.600        104.17	    11.180
   6.620         97.50	    10.817
   6.640        123.33	    12.166
   6.660        105.83	    11.269
   6.680        108.33	    11.402
   6.700        107.50	    11.358
   6.720        130.00	    12.490
   6.740        125.83	    12.288
   6.760        110.83	    11.533
   6.780        107.50	    11.358
   6.800        105.00	    11.225
   6.820        114.17	    11.705
   6.840        116.67	    11.832
   6.860        124.17	    12.207
   6.880        113.33	    11.662
   6.900        105.00	    11.225
   6.920        106.67	    11.314
   6.940        120.00	    12.000
   6.960        104.17	    11.180
   6.980        103.33	    11.136
   7.000        110.00	    11.489
   7.020        108.33	    11.402
   7.040         98.33	    10.863
   7.060        110.83	    11.533
   7.080         95.00	    10.677
   7.100        101.67	    11.045
   7.120         96.67	    10.770
   7.140        108.33	    11.402
   7.160        111.67	    11.576
   7.180         92.50	    10.536
   7.200         83.33	    10.000
   7.220        120.00	    12.000
   7.240         89.17	    10.344
   7.260         75.83	     9.539
   7.280        108.33	    11.402
   7.300         95.00	    10.677
   7.320        103.33	    11.136
   7.340        111.67	    11.576
   7.360         99.17	    10.909
   7.380        107.50	    11.358
   7.400         80.83	     9.849
   7.420        101.67	    11.045
   7.440        104.17	    11.180
   7.460         99.17	    10.909
   7.480         96.67	    10.770
   7.500         94.17	    10.630
   7.520         90.83	    10.440
   7.540         78.33	     9.695
   7.560         95.00	    10.677
   7.580        105.00	    11.225
   7.600         90.83	    10.440
   7.620         91.67	    10.488
   7.640         92.50	    10.536
   7.660         81.67	     9.899
   7.680         96.67	    10.770
   7.700         91.67	    10.488
   7.720         95.00	    10.677
   7.740         84.17	    10.050
   7.760         82.50	     9.950
   7.780         87.50	    10.247
   7.800         90.83	    10.440
   7.820         97.50	    10.817
   7.840         91.67	    10.488
   7.860         90.83	    10.440
   7.880         86.67	    10.198
   7.900         84.17	    10.050
   7.920        104.17	    11.180
   7.940         76.67	     9.592
   7.960        100.00	    10.954
   7.980         96.67	    10.770
   8.000         90.83	    10.440
   8.020         81.67	     9.899
   8.040         85.83	    10.149
   8.060         93.33	    10.583
   8.080        100.83	    11.000
   8.100         85.00	    10.100
   8.120         80.00	     9.798
   8.140         85.00	    10.100
   8.160         97.50	    10.817
   8.180         89.17	    10.344
   8.200         90.00	    10.392
   8.220         86.67	    10.198
   8.240         80.00	     9.798
   8.260         75.00	     9.487
   8.280         71.67	     9.274
   8.300         91.67	    10.488
   8.320         86.67	    10.198
   8.340        102.50	    11.091
   8.360         78.33	     9.695
   8.380         81.67	     9.899
   8.400         76.67	     9.592
   8.420         93.33	    10.583
   8.440         83.33	    10.000
   8.460         76.67	     9.592
   8.480         89.17	    10.344
   8.500        104.17	    11.180
   8.520        119.17	    11.958
   8.540         97.50	    10.817
   8.560         98.33	    10.863
   8.580         99.17	    10.909
   8.600        102.50	    11.091
   8.620        120.83	    12.042
   8.640        117.50	    11.874
   8.660        125.83	    12.288
   8.680        133.33	    12.649
   8.700        165.83	    14.107
   8.720        181.67	    14.765
   8.740        199.17	    15.460
   8.760        205.00	    15.684
   8.780        267.50	    17.916
   8.800        338.33	    20.149
   8.820        355.00	    20.640
   8.840        373.33	    21.166
   8.860        477.50	    23.937
   8.880        599.17	    26.814
   8.900        586.67	    26.533
   8.920        445.83	    23.130
   8.940        271.67	    18.055
   8.960        167.50	    14.177
   8.980        120.00	    12.000
   9.000        100.00	    10.954
   9.020        121.67	    12.083
   9.040         97.50	    10.817
   9.060        110.83	    11.533
   9.080        104.17	    11.180
   9.100        105.00	    11.225
   9.120        100.83	    11.000
   9.140         96.67	    10.770
   9.160        103.33	    11.136
   9.180        112.50	    11.619
   9.200        106.67	    11.314
   9.220         83.33	    10.000
   9.240         79.17	     9.747
   9.260         82.50	     9.950
   9.280         78.33	     9.695
   9.300         80.00	     9.798
   9.320         72.50	     9.327
   9.340        100.83	    11.000
   9.360         79.17	     9.747
   9.380         70.83	     9.220
   9.400         93.33	    10.583
   9.420         93.33	    10.583
   9.440         97.50	    10.817
   9.460        109.17	    11.446
   9.480        113.33	    11.662
   9.500         89.17	    10.344
   9.520         84.17	    10.050
   9.540         83.33	    10.000
   9.560         88.33	    10.296
   9.580         75.83	     9.539
   9.600         90.00	    10.392
   9.620         67.50	     9.000
   9.640         72.50	     9.327
   9.660         86.67	    10.198
   9.680         76.67	     9.592
   9.700         69.17	     9.110
   9.720         60.83	     8.544
   9.740         75.00	     9.487
   9.760         72.50	     9.327
   9.780         75.00	     9.487
   9.800         65.00	     8.832
   9.820         83.33	    10.000
   9.840         79.17	     9.747
   9.860         81.67	     9.899
   9.880         69.17	     9.110
   9.900         50.83	     7.810
   9.920         80.00	     9.798
   9.940         66.67	     8.944
   9.960         61.67	     8.602
   9.980         73.33	     9.381
  10.000         63.33	     8.718
  10.020         72.50	     9.327
  10.040         66.67	     8.944
  10.060         69.17	     9.110
  10.080         64.17	     8.775
  10.100         62.50	     8.660
  10.120         72.50	     9.327
  10.140         72.50	     9.327
  10.160         72.50	     9.327
  10.180         67.50	     9.000
  10.200         62.50	     8.660
  10.220         75.83	     9.539
  10.240         60.00	     8.485
  10.260         79.17	     9.747
  10.280         55.83	     8.185
  10.300         65.83	     8.888
  10.320         59.17	     8.426
  10.340         75.83	     9.539
  10.360         61.67	     8.602
  10.380         62.50	     8.660
  10.400         83.33	    10.000
  10.420         94.17	    10.630
  10.440         92.50	    10.536
  10.460        133.33	    12.649
  10.480        165.00	    14.071
  10.500        141.67	    13.038
  10.520        160.00	    13.856
  10.540        210.83	    15.906
  10.560        174.17	    14.457
  10.580        130.83	    12.530
  10.600        105.00	    11.225
  10.620         72.50	     9.327
  10.640         68.33	     9.055
  10.660         85.83	    10.149
  10.680         49.17	     7.681
  10.700         57.50	     8.307
  10.720         64.17	     8.775
  10.740         65.00	     8.832
  10.760         67.50	     9.000
  10.780         63.33	     8.718
  10.800         65.83	     8.888
  10.820         72.50	     9.327
  10.840         60.00	     8.485
  10.860         55.83	     8.185
  10.880         64.17	     8.775
  10.900         59.17	     8.426
  10.920         65.83	     8.888
  10.940         58.33	     8.367
  10.960         67.50	     9.000
  10.980         55.83	     8.185
  11.000         74.17	     9.434
  11.020         61.67	     8.602
  11.040         60.00	     8.485
  11.060         63.33	     8.718
  11.080         59.17	     8.426
  11.100         66.67	     8.944
  11.120         60.83	     8.544
  11.140         63.33	     8.718
  11.160         61.67	     8.602
  11.180         70.00	     9.165
  11.200         68.33	     9.055
  11.220         62.50	     8.660
  11.240         65.83	     8.888
  11.260         63.33	     8.718
  11.280         49.17	     7.681
  11.300         66.67	     8.944
  11.320         63.33	     8.718
  11.340         78.33	     9.695
  11.360         62.50	     8.660
  11.380         67.50	     9.000
  11.400         67.50	     9.000
  11.420         60.00	     8.485
  11.440         54.17	     8.062
  11.460         72.50	     9.327
  11.480         59.17	     8.426
  11.500         62.50	     8.660
  11.520         53.33	     8.000
  11.540         66.67	     8.944
  11.560         59.17	     8.426
  11.580         56.67	     8.246
  11.600         53.33	     8.000
  11.620         57.50	     8.307
  11.640         75.83	     9.539
  11.660         70.00	     9.165
  11.680         60.83	     8.544
  11.700         65.83	     8.888
  11.720         52.50	     7.937
  11.740         60.83	     8.544
  11.760         62.50	     8.660
  11.780         70.00	     9.165
  11.800         57.50	     8.307
  11.820         59.17	     8.426
  11.840         52.50	     7.937
  11.860         55.83	     8.185
  11.880         75.00	     9.487
  11.900         67.50	     9.000
  11.920         63.33	     8.718
  11.940         65.83	     8.888
  11.960         90.00	    10.392
  11.980         64.17	     8.775
  12.000         90.00	    10.392
  12.020         84.17	    10.050
  12.040         70.00	     9.165
  12.060         87.50	    10.247
  12.080        110.83	    11.533
  12.100        132.50	    12.610
  12.120        153.33	    13.565
  12.140        207.50	    15.780
  12.160        239.17	    16.941
  12.180        284.17	    18.466
  12.200        350.00	    20.494
  12.220        339.17	    20.174
  12.240        267.50	    17.916
  12.260        191.67	    15.166
  12.280        158.33	    13.784
  12.300        158.33	    13.784
  12.320        146.67	    13.266
  12.340        157.50	    13.748
  12.360        160.00	    13.856
  12.380        152.50	    13.528
