
Filename:
	C:\Program Files\Thermo Electron\WinXRD\Datafiles\F_HERMAN\FIEN\14_1_AUG_P_RT.raw

File Created:
	January 24, 2019 - 04:08 PM

Specimen Id:
	14.1 AUG FT

Specimen Name:
	

Specimen Description:
	

Comment:
Scan Type: 2Theta Scan
Start Angle: 1 deg.
Stop Angle: 65 deg.
Num Points: 3201
Step Size: 0.02 deg.
Scan Rate: 1.000000
Scan Mode: Continuous
Wavelength: 1.540562
\Kalpha1: 1.540562	\Kalpha2: 1.544390	\Kbeta: 1.392218

Optics:
		Detector:
			 Type: Fixed Slits
		Tube: 
			 Type: Fixed Slits


Datas:
 Pos [deg]       Rate [CPS]      ESD [-]

Range 1 ---> Iteration 1
   1.000        909.17	    33.030
   1.020        802.50	    31.032
   1.040        611.67	    27.092
   1.060        535.00	    25.338
   1.080        505.00	    24.617
   1.100        474.17	    23.854
   1.120        500.00	    24.495
   1.140        525.83	    25.120
   1.160        436.67	    22.891
   1.180        367.50	    21.000
   1.200        445.00	    23.108
   1.220        430.83	    22.738
   1.240        360.83	    20.809
   1.260        362.50	    20.857
   1.280        485.00	    24.125
   1.300        575.00	    26.268
   1.320        692.50	    28.827
   1.340        776.67	    30.529
   1.360       1176.67	    37.577
   1.380       1280.00	    39.192
   1.400       1342.50	    40.137
   1.420       1408.33	    41.110
   1.440       1334.17	    40.012
   1.460       1306.67	    39.598
   1.480       1262.50	    38.923
   1.500       1267.50	    39.000
   1.520       1230.83	    38.432
   1.540       1115.83	    36.592
   1.560       1125.00	    36.742
   1.580       1096.67	    36.277
   1.600       1021.67	    35.014
   1.620        937.50	    33.541
   1.640        909.17	    33.030
   1.660        827.50	    31.512
   1.680        830.00	    31.559
   1.700        803.33	    31.048
   1.720        747.50	    29.950
   1.740        658.33	    28.107
   1.760        666.67	    28.284
   1.780        645.83	    27.839
   1.800        559.17	    25.904
   1.820        571.67	    26.192
   1.840        523.33	    25.060
   1.860        499.17	    24.474
   1.880        480.83	    24.021
   1.900        471.67	    23.791
   1.920        471.67	    23.791
   1.940        474.17	    23.854
   1.960        440.00	    22.978
   1.980        462.50	    23.558
   2.000        474.17	    23.854
   2.020        460.83	    23.516
   2.040        446.67	    23.152
   2.060        441.67	    23.022
   2.080        440.83	    23.000
   2.100        445.00	    23.108
   2.120        388.33	    21.587
   2.140        397.50	    21.840
   2.160        393.33	    21.726
   2.180        381.67	    21.401
   2.200        386.67	    21.541
   2.220        370.00	    21.071
   2.240        412.50	    22.249
   2.260        385.00	    21.494
   2.280        370.83	    21.095
   2.300        337.50	    20.125
   2.320        342.50	    20.273
   2.340        332.50	    19.975
   2.360        331.67	    19.950
   2.380        348.33	    20.445
   2.400        358.33	    20.736
   2.420        323.33	    19.698
   2.440        308.33	    19.235
   2.460        303.33	    19.079
   2.480        342.50	    20.273
   2.500        291.67	    18.708
   2.520        285.00	    18.493
   2.540        316.67	    19.494
   2.560        287.50	    18.574
   2.580        298.33	    18.921
   2.600        281.67	    18.385
   2.620        295.00	    18.815
   2.640        293.33	    18.762
   2.660        307.50	    19.209
   2.680        277.50	    18.248
   2.700        295.00	    18.815
   2.720        310.00	    19.287
   2.740        285.00	    18.493
   2.760        281.67	    18.385
   2.780        272.50	    18.083
   2.800        252.50	    17.407
   2.820        260.00	    17.664
   2.840        241.67	    17.029
   2.860        245.83	    17.176
   2.880        258.33	    17.607
   2.900        257.50	    17.578
   2.920        270.83	    18.028
   2.940        253.33	    17.436
   2.960        256.67	    17.550
   2.980        254.17	    17.464
   3.000        241.67	    17.029
   3.020        219.17	    16.217
   3.040        230.00	    16.613
   3.060        257.50	    17.578
   3.080        240.83	    17.000
   3.100        225.00	    16.432
   3.120        250.83	    17.349
   3.140        245.83	    17.176
   3.160        240.83	    17.000
   3.180        225.83	    16.462
   3.200        245.00	    17.146
   3.220        249.17	    17.292
   3.240        234.17	    16.763
   3.260        246.67	    17.205
   3.280        224.17	    16.401
   3.300        213.33	    16.000
   3.320        227.50	    16.523
   3.340        228.33	    16.553
   3.360        229.17	    16.583
   3.380        238.33	    16.912
   3.400        230.00	    16.613
   3.420        241.67	    17.029
   3.440        186.67	    14.967
   3.460        219.17	    16.217
   3.480        220.00	    16.248
   3.500        192.50	    15.199
   3.520        195.83	    15.330
   3.540        220.00	    16.248
   3.560        201.67	    15.556
   3.580        200.00	    15.492
   3.600        219.17	    16.217
   3.620        215.00	    16.062
   3.640        188.33	    15.033
   3.660        196.67	    15.362
   3.680        214.17	    16.031
   3.700        192.50	    15.199
   3.720        190.83	    15.133
   3.740        209.17	    15.843
   3.760        182.50	    14.799
   3.780        172.50	    14.387
   3.800        200.00	    15.492
   3.820        180.00	    14.697
   3.840        181.67	    14.765
   3.860        187.50	    15.000
   3.880        173.33	    14.422
   3.900        207.50	    15.780
   3.920        205.83	    15.716
   3.940        175.83	    14.526
   3.960        169.17	    14.248
   3.980        175.00	    14.491
   4.000        171.67	    14.353
   4.020        192.50	    15.199
   4.040        190.00	    15.100
   4.060        173.33	    14.422
   4.080        185.00	    14.900
   4.100        177.50	    14.595
   4.120        181.67	    14.765
   4.140        171.67	    14.353
   4.160        165.00	    14.071
   4.180        181.67	    14.765
   4.200        168.33	    14.213
   4.220        183.33	    14.832
   4.240        157.50	    13.748
   4.260        165.83	    14.107
   4.280        175.83	    14.526
   4.300        167.50	    14.177
   4.320        160.83	    13.892
   4.340        159.17	    13.820
   4.360        166.67	    14.142
   4.380        141.67	    13.038
   4.400        152.50	    13.528
   4.420        154.17	    13.601
   4.440        158.33	    13.784
   4.460        153.33	    13.565
   4.480        160.83	    13.892
   4.500        164.17	    14.036
   4.520        158.33	    13.784
   4.540        163.33	    14.000
   4.560        153.33	    13.565
   4.580        160.00	    13.856
   4.600        140.00	    12.961
   4.620        155.83	    13.675
   4.640        138.33	    12.884
   4.660        144.17	    13.153
   4.680        162.50	    13.964
   4.700        155.00	    13.638
   4.720        154.17	    13.601
   4.740        152.50	    13.528
   4.760        133.33	    12.649
   4.780        146.67	    13.266
   4.800        155.83	    13.675
   4.820        131.67	    12.570
   4.840        151.67	    13.491
   4.860        135.83	    12.767
   4.880        130.83	    12.530
   4.900        145.00	    13.191
   4.920        137.50	    12.845
   4.940        155.83	    13.675
   4.960        121.67	    12.083
   4.980        144.17	    13.153
   5.000        138.33	    12.884
   5.020        126.67	    12.329
   5.040        123.33	    12.166
   5.060        140.83	    13.000
   5.080        155.00	    13.638
   5.100        121.67	    12.083
   5.120        149.17	    13.379
   5.140        125.00	    12.247
   5.160        146.67	    13.266
   5.180        148.33	    13.342
   5.200        119.17	    11.958
   5.220        125.83	    12.288
   5.240        128.33	    12.410
   5.260        130.83	    12.530
   5.280        140.00	    12.961
   5.300        142.50	    13.077
   5.320        155.83	    13.675
   5.340        120.83	    12.042
   5.360        120.00	    12.000
   5.380        131.67	    12.570
   5.400        140.83	    13.000
   5.420        132.50	    12.610
   5.440        118.33	    11.916
   5.460        140.00	    12.961
   5.480        114.17	    11.705
   5.500        135.00	    12.728
   5.520        130.83	    12.530
   5.540        120.00	    12.000
   5.560        130.00	    12.490
   5.580        119.17	    11.958
   5.600        130.00	    12.490
   5.620        134.17	    12.689
   5.640        146.67	    13.266
   5.660        136.67	    12.806
   5.680        125.83	    12.288
   5.700        142.50	    13.077
   5.720        122.50	    12.124
   5.740        136.67	    12.806
   5.760        121.67	    12.083
   5.780        132.50	    12.610
   5.800        124.17	    12.207
   5.820        111.67	    11.576
   5.840        128.33	    12.410
   5.860        141.67	    13.038
   5.880        111.67	    11.576
   5.900        140.00	    12.961
   5.920        124.17	    12.207
   5.940        137.50	    12.845
   5.960        132.50	    12.610
   5.980        129.17	    12.450
   6.000        138.33	    12.884
   6.020        105.00	    11.225
   6.040        149.17	    13.379
   6.060        140.83	    13.000
   6.080        148.33	    13.342
   6.100        142.50	    13.077
   6.120        149.17	    13.379
   6.140        181.67	    14.765
   6.160        190.83	    15.133
   6.180        215.00	    16.062
   6.200        263.33	    17.776
   6.220        246.67	    17.205
   6.240        280.83	    18.358
   6.260        295.00	    18.815
   6.280        309.17	    19.261
   6.300        265.00	    17.833
   6.320        270.00	    18.000
   6.340        225.00	    16.432
   6.360        214.17	    16.031
   6.380        182.50	    14.799
   6.400        203.33	    15.620
   6.420        166.67	    14.142
   6.440        155.83	    13.675
   6.460        165.83	    14.107
   6.480        136.67	    12.806
   6.500        125.00	    12.247
   6.520        125.00	    12.247
   6.540         90.83	    10.440
   6.560        123.33	    12.166
   6.580        129.17	    12.450
   6.600        116.67	    11.832
   6.620        107.50	    11.358
   6.640        118.33	    11.916
   6.660        114.17	    11.705
   6.680        113.33	    11.662
   6.700         89.17	    10.344
   6.720        109.17	    11.446
   6.740        152.50	    13.528
   6.760        118.33	    11.916
   6.780        118.33	    11.916
   6.800        103.33	    11.136
   6.820        105.00	    11.225
   6.840        110.00	    11.489
   6.860        120.83	    12.042
   6.880        105.00	    11.225
   6.900         94.17	    10.630
   6.920        108.33	    11.402
   6.940        118.33	    11.916
   6.960        101.67	    11.045
   6.980         98.33	    10.863
   7.000        109.17	    11.446
   7.020        100.00	    10.954
   7.040        100.00	    10.954
   7.060         99.17	    10.909
   7.080        104.17	    11.180
   7.100        110.83	    11.533
   7.120        118.33	    11.916
   7.140         95.00	    10.677
   7.160         95.00	    10.677
   7.180        105.00	    11.225
   7.200        102.50	    11.091
   7.220         90.83	    10.440
   7.240        111.67	    11.576
   7.260        112.50	    11.619
   7.280         88.33	    10.296
   7.300        109.17	    11.446
   7.320         98.33	    10.863
   7.340         93.33	    10.583
   7.360         90.00	    10.392
   7.380        109.17	    11.446
   7.400         90.00	    10.392
   7.420        105.00	    11.225
   7.440         80.00	     9.798
   7.460         95.83	    10.724
   7.480        110.83	    11.533
   7.500        110.83	    11.533
   7.520         92.50	    10.536
   7.540        105.00	    11.225
   7.560         92.50	    10.536
   7.580        103.33	    11.136
   7.600        110.00	    11.489
   7.620         99.17	    10.909
   7.640        100.83	    11.000
   7.660         93.33	    10.583
   7.680         81.67	     9.899
   7.700        100.83	    11.000
   7.720         97.50	    10.817
   7.740        101.67	    11.045
   7.760         95.00	    10.677
   7.780         82.50	     9.950
   7.800        103.33	    11.136
   7.820         84.17	    10.050
   7.840        109.17	    11.446
   7.860         95.00	    10.677
   7.880         91.67	    10.488
   7.900        104.17	    11.180
   7.920         97.50	    10.817
   7.940        103.33	    11.136
   7.960         85.83	    10.149
   7.980         95.00	    10.677
   8.000         99.17	    10.909
   8.020         92.50	    10.536
   8.040         91.67	    10.488
   8.060         90.00	    10.392
   8.080         89.17	    10.344
   8.100         97.50	    10.817
   8.120         90.83	    10.440
   8.140         87.50	    10.247
   8.160        107.50	    11.358
   8.180         90.83	    10.440
   8.200         76.67	     9.592
   8.220         92.50	    10.536
   8.240         95.00	    10.677
   8.260        101.67	    11.045
   8.280         84.17	    10.050
   8.300         83.33	    10.000
   8.320         97.50	    10.817
   8.340         83.33	    10.000
   8.360         98.33	    10.863
   8.380         87.50	    10.247
   8.400         92.50	    10.536
   8.420         90.83	    10.440
   8.440         87.50	    10.247
   8.460         94.17	    10.630
   8.480         93.33	    10.583
   8.500         95.83	    10.724
   8.520        109.17	    11.446
   8.540        105.83	    11.269
   8.560         96.67	    10.770
   8.580        101.67	    11.045
   8.600        105.83	    11.269
   8.620        103.33	    11.136
   8.640        105.00	    11.225
   8.660        120.00	    12.000
   8.680        114.17	    11.705
   8.700        130.83	    12.530
   8.720        140.00	    12.961
   8.740        150.00	    13.416
   8.760        156.67	    13.711
   8.780        203.33	    15.620
   8.800        235.83	    16.823
   8.820        252.50	    17.407
   8.840        280.83	    18.358
   8.860        316.67	    19.494
   8.880        400.00	    21.909
   8.900        450.83	    23.259
   8.920        681.67	    28.601
   8.940        680.83	    28.583
   8.960        530.00	    25.219
   8.980        358.33	    20.736
   9.000        180.83	    14.731
   9.020        127.50	    12.369
   9.040        102.50	    11.091
   9.060         98.33	    10.863
   9.080        104.17	    11.180
   9.100         97.50	    10.817
   9.120         95.00	    10.677
   9.140        107.50	    11.358
   9.160        113.33	    11.662
   9.180        115.83	    11.790
   9.200        134.17	    12.689
   9.220        190.83	    15.133
   9.240        169.17	    14.248
   9.260        120.83	    12.042
   9.280         90.00	    10.392
   9.300        108.33	    11.402
   9.320         75.00	     9.487
   9.340         85.00	    10.100
   9.360         73.33	     9.381
   9.380        105.00	    11.225
   9.400         83.33	    10.000
   9.420         95.00	    10.677
   9.440        103.33	    11.136
   9.460        124.17	    12.207
   9.480        110.00	    11.489
   9.500        104.17	    11.180
   9.520         79.17	     9.747
   9.540         81.67	     9.899
   9.560         92.50	    10.536
   9.580         75.83	     9.539
   9.600         71.67	     9.274
   9.620         84.17	    10.050
   9.640         88.33	    10.296
   9.660         73.33	     9.381
   9.680         84.17	    10.050
   9.700         79.17	     9.747
   9.720         65.00	     8.832
   9.740         76.67	     9.592
   9.760         77.50	     9.644
   9.780         78.33	     9.695
   9.800         90.00	    10.392
   9.820         78.33	     9.695
   9.840         79.17	     9.747
   9.860         75.00	     9.487
   9.880         83.33	    10.000
   9.900         90.83	    10.440
   9.920         71.67	     9.274
   9.940         71.67	     9.274
   9.960         71.67	     9.274
   9.980         85.00	    10.100
  10.000         70.00	     9.165
  10.020         90.83	    10.440
  10.040         74.17	     9.434
  10.060         76.67	     9.592
  10.080         78.33	     9.695
  10.100         79.17	     9.747
  10.120         75.83	     9.539
  10.140         63.33	     8.718
  10.160         70.00	     9.165
  10.180         60.83	     8.544
  10.200         75.00	     9.487
  10.220         58.33	     8.367
  10.240         74.17	     9.434
  10.260         69.17	     9.110
  10.280         64.17	     8.775
  10.300         73.33	     9.381
  10.320         70.83	     9.220
  10.340         71.67	     9.274
  10.360         74.17	     9.434
  10.380         85.00	    10.100
  10.400         78.33	     9.695
  10.420         77.50	     9.644
  10.440         70.83	     9.220
  10.460         80.00	     9.798
  10.480         88.33	    10.296
  10.500        100.00	    10.954
  10.520        145.00	    13.191
  10.540        159.17	    13.820
  10.560        200.83	    15.524
  10.580        165.83	    14.107
  10.600        107.50	    11.358
  10.620         92.50	    10.536
  10.640         68.33	     9.055
  10.660         94.17	    10.630
  10.680         80.00	     9.798
  10.700         63.33	     8.718
  10.720         78.33	     9.695
  10.740         61.67	     8.602
  10.760         73.33	     9.381
  10.780         84.17	    10.050
  10.800         66.67	     8.944
  10.820         66.67	     8.944
  10.840         65.83	     8.888
  10.860         75.83	     9.539
  10.880         77.50	     9.644
  10.900         69.17	     9.110
  10.920         75.00	     9.487
  10.940         65.83	     8.888
  10.960         76.67	     9.592
  10.980         67.50	     9.000
  11.000         72.50	     9.327
  11.020         80.83	     9.849
  11.040         61.67	     8.602
  11.060         80.83	     9.849
  11.080         70.00	     9.165
  11.100         80.00	     9.798
  11.120         67.50	     9.000
  11.140         75.83	     9.539
  11.160         63.33	     8.718
  11.180         60.83	     8.544
  11.200         54.17	     8.062
  11.220         74.17	     9.434
  11.240         78.33	     9.695
  11.260         74.17	     9.434
  11.280         74.17	     9.434
  11.300         63.33	     8.718
  11.320         79.17	     9.747
  11.340         73.33	     9.381
  11.360         65.00	     8.832
  11.380         74.17	     9.434
  11.400         63.33	     8.718
  11.420         65.00	     8.832
  11.440         70.83	     9.220
  11.460         67.50	     9.000
  11.480         77.50	     9.644
  11.500         67.50	     9.000
  11.520         59.17	     8.426
  11.540         61.67	     8.602
  11.560         62.50	     8.660
  11.580         70.83	     9.220
  11.600         77.50	     9.644
  11.620         58.33	     8.367
  11.640         80.83	     9.849
  11.660         70.00	     9.165
  11.680         73.33	     9.381
  11.700         68.33	     9.055
  11.720         62.50	     8.660
  11.740         59.17	     8.426
  11.760         70.83	     9.220
  11.780         74.17	     9.434
  11.800         60.00	     8.485
  11.820         66.67	     8.944
  11.840         85.00	    10.100
  11.860         67.50	     9.000
  11.880         67.50	     9.000
  11.900         90.83	    10.440
  11.920         82.50	     9.950
  11.940         65.00	     8.832
  11.960         70.00	     9.165
  11.980         70.83	     9.220
  12.000         91.67	    10.488
  12.020         88.33	    10.296
  12.040         77.50	     9.644
  12.060         93.33	    10.583
  12.080         98.33	    10.863
  12.100         96.67	    10.770
  12.120         97.50	    10.817
  12.140        135.83	    12.767
  12.160        150.83	    13.454
  12.180        187.50	    15.000
  12.200        306.67	    19.183
  12.220        425.00	    22.583
  12.240        549.17	    25.671
  12.260        474.17	    23.854
  12.280        326.67	    19.799
  12.300        210.83	    15.906
  12.320        154.17	    13.601
  12.340        151.67	    13.491
  12.360        156.67	    13.711
  12.380        165.83	    14.107
