
Filename:
	C:\Program Files\Thermo Electron\WinXRD\Datafiles\F_HERMAN\FIEN\15_1_SEPT_FILTER.raw

File Created:
	December 20, 2018 - 04:02 PM

Specimen Id:
	15/1/SEPTEMBRE FILTRE

Specimen Name:
	

Specimen Description:
	

Comment:
Scan Type: 2Theta Scan
Start Angle: 1 deg.
Stop Angle: 65 deg.
Num Points: 3201
Step Size: 0.02 deg.
Scan Rate: 1.000000
Scan Mode: Continuous
Wavelength: 1.540562
\Kalpha1: 1.540562	\Kalpha2: 1.544390	\Kbeta: 1.392218

Optics:
		Detector:
			 Type: Fixed Slits
		Tube: 
			 Type: Fixed Slits


Datas:
 Pos [deg]       Rate [CPS]      ESD [-]

Range 1 ---> Iteration 1
   1.000       1009.17	    34.799
   1.020        723.33	    29.462
   1.040        520.83	    25.000
   1.060        451.67	    23.281
   1.080        498.33	    24.454
   1.100        587.50	    26.552
   1.120        539.17	    25.436
   1.140        453.33	    23.324
   1.160        465.83	    23.643
   1.180        412.50	    22.249
   1.200        439.17	    22.956
   1.220        410.83	    22.204
   1.240        402.50	    21.977
   1.260        409.17	    22.159
   1.280        492.50	    24.310
   1.300        587.50	    26.552
   1.320        680.83	    28.583
   1.340        782.50	    30.643
   1.360       1095.83	    36.263
   1.380       1100.00	    36.332
   1.400       1253.33	    38.781
   1.420       1200.00	    37.947
   1.440       1220.83	    38.275
   1.460       1231.67	    38.445
   1.480       1215.83	    38.197
   1.500       1069.17	    35.819
   1.520       1099.17	    36.318
   1.540       1116.67	    36.606
   1.560       1118.33	    36.633
   1.580       1037.50	    35.285
   1.600        986.67	    34.409
   1.620        913.33	    33.106
   1.640        859.17	    32.109
   1.660        858.33	    32.094
   1.680        801.67	    31.016
   1.700        695.00	    28.879
   1.720        670.83	    28.373
   1.740        666.67	    28.284
   1.760        620.83	    27.295
   1.780        537.50	    25.397
   1.800        506.67	    24.658
   1.820        524.17	    25.080
   1.840        480.00	    24.000
   1.860        470.83	    23.770
   1.880        454.17	    23.345
   1.900        421.67	    22.494
   1.920        410.00	    22.181
   1.940        394.17	    21.749
   1.960        370.00	    21.071
   1.980        416.67	    22.361
   2.000        395.00	    21.772
   2.020        391.67	    21.679
   2.040        360.83	    20.809
   2.060        364.17	    20.905
   2.080        381.67	    21.401
   2.100        334.17	    20.025
   2.120        324.17	    19.723
   2.140        391.67	    21.679
   2.160        327.50	    19.824
   2.180        328.33	    19.849
   2.200        335.00	    20.050
   2.220        332.50	    19.975
   2.240        320.00	    19.596
   2.260        311.67	    19.339
   2.280        291.67	    18.708
   2.300        298.33	    18.921
   2.320        284.17	    18.466
   2.340        280.00	    18.330
   2.360        291.67	    18.708
   2.380        265.83	    17.861
   2.400        299.17	    18.947
   2.420        290.00	    18.655
   2.440        265.00	    17.833
   2.460        275.00	    18.166
   2.480        250.00	    17.321
   2.500        266.67	    17.889
   2.520        263.33	    17.776
   2.540        244.17	    17.117
   2.560        255.83	    17.521
   2.580        274.17	    18.138
   2.600        250.00	    17.321
   2.620        255.83	    17.521
   2.640        258.33	    17.607
   2.660        248.33	    17.263
   2.680        250.83	    17.349
   2.700        245.83	    17.176
   2.720        220.00	    16.248
   2.740        229.17	    16.583
   2.760        227.50	    16.523
   2.780        222.50	    16.340
   2.800        230.00	    16.613
   2.820        207.50	    15.780
   2.840        230.00	    16.613
   2.860        239.17	    16.941
   2.880        215.83	    16.093
   2.900        228.33	    16.553
   2.920        215.00	    16.062
   2.940        234.17	    16.763
   2.960        192.50	    15.199
   2.980        220.00	    16.248
   3.000        199.17	    15.460
   3.020        220.00	    16.248
   3.040        225.83	    16.462
   3.060        188.33	    15.033
   3.080        210.00	    15.875
   3.100        218.33	    16.186
   3.120        194.17	    15.264
   3.140        208.33	    15.811
   3.160        198.33	    15.427
   3.180        177.50	    14.595
   3.200        175.83	    14.526
   3.220        177.50	    14.595
   3.240        180.83	    14.731
   3.260        173.33	    14.422
   3.280        182.50	    14.799
   3.300        190.83	    15.133
   3.320        195.83	    15.330
   3.340        191.67	    15.166
   3.360        150.00	    13.416
   3.380        191.67	    15.166
   3.400        197.50	    15.395
   3.420        191.67	    15.166
   3.440        198.33	    15.427
   3.460        185.00	    14.900
   3.480        169.17	    14.248
   3.500        189.17	    15.067
   3.520        179.17	    14.663
   3.540        160.00	    13.856
   3.560        161.67	    13.928
   3.580        167.50	    14.177
   3.600        165.83	    14.107
   3.620        185.83	    14.933
   3.640        164.17	    14.036
   3.660        138.33	    12.884
   3.680        175.00	    14.491
   3.700        156.67	    13.711
   3.720        166.67	    14.142
   3.740        161.67	    13.928
   3.760        161.67	    13.928
   3.780        142.50	    13.077
   3.800        154.17	    13.601
   3.820        135.83	    12.767
   3.840        158.33	    13.784
   3.860        151.67	    13.491
   3.880        165.00	    14.071
   3.900        145.00	    13.191
   3.920        163.33	    14.000
   3.940        146.67	    13.266
   3.960        148.33	    13.342
   3.980        170.00	    14.283
   4.000        155.83	    13.675
   4.020        142.50	    13.077
   4.040        150.00	    13.416
   4.060        136.67	    12.806
   4.080        160.83	    13.892
   4.100        137.50	    12.845
   4.120        135.00	    12.728
   4.140        128.33	    12.410
   4.160        136.67	    12.806
   4.180        143.33	    13.115
   4.200        118.33	    11.916
   4.220        140.00	    12.961
   4.240        135.83	    12.767
   4.260        114.17	    11.705
   4.280        142.50	    13.077
   4.300        142.50	    13.077
   4.320        130.83	    12.530
   4.340        130.83	    12.530
   4.360        145.00	    13.191
   4.380        140.00	    12.961
   4.400        138.33	    12.884
   4.420        141.67	    13.038
   4.440        136.67	    12.806
   4.460        123.33	    12.166
   4.480        128.33	    12.410
   4.500        149.17	    13.379
   4.520        127.50	    12.369
   4.540        118.33	    11.916
   4.560        121.67	    12.083
   4.580        130.00	    12.490
   4.600        121.67	    12.083
   4.620        115.83	    11.790
   4.640        105.83	    11.269
   4.660        124.17	    12.207
   4.680        100.00	    10.954
   4.700        119.17	    11.958
   4.720        105.83	    11.269
   4.740        129.17	    12.450
   4.760        121.67	    12.083
   4.780        115.83	    11.790
   4.800        110.00	    11.489
   4.820         94.17	    10.630
   4.840        102.50	    11.091
   4.860        109.17	    11.446
   4.880        135.00	    12.728
   4.900         96.67	    10.770
   4.920        125.83	    12.288
   4.940        115.00	    11.747
   4.960        104.17	    11.180
   4.980        125.83	    12.288
   5.000        120.83	    12.042
   5.020         98.33	    10.863
   5.040        114.17	    11.705
   5.060        113.33	    11.662
   5.080        114.17	    11.705
   5.100        102.50	    11.091
   5.120        108.33	    11.402
   5.140        110.00	    11.489
   5.160        101.67	    11.045
   5.180        110.83	    11.533
   5.200        118.33	    11.916
   5.220        100.00	    10.954
   5.240        105.83	    11.269
   5.260        108.33	    11.402
   5.280         91.67	    10.488
   5.300         94.17	    10.630
   5.320        100.00	    10.954
   5.340         86.67	    10.198
   5.360        105.00	    11.225
   5.380        106.67	    11.314
   5.400         86.67	    10.198
   5.420        112.50	    11.619
   5.440        106.67	    11.314
   5.460        115.00	    11.747
   5.480        110.00	    11.489
   5.500        116.67	    11.832
   5.520         84.17	    10.050
   5.540        100.00	    10.954
   5.560         90.00	    10.392
   5.580         80.00	     9.798
   5.600        104.17	    11.180
   5.620         95.00	    10.677
   5.640        107.50	    11.358
   5.660         87.50	    10.247
   5.680        112.50	    11.619
   5.700        115.00	    11.747
   5.720         87.50	    10.247
   5.740        109.17	    11.446
   5.760         93.33	    10.583
   5.780        100.00	    10.954
   5.800        103.33	    11.136
   5.820         92.50	    10.536
   5.840        102.50	    11.091
   5.860        102.50	    11.091
   5.880         82.50	     9.950
   5.900        106.67	    11.314
   5.920        106.67	    11.314
   5.940        117.50	    11.874
   5.960        103.33	    11.136
   5.980        111.67	    11.576
   6.000        121.67	    12.083
   6.020        137.50	    12.845
   6.040        129.17	    12.450
   6.060        115.83	    11.790
   6.080        135.00	    12.728
   6.100        136.67	    12.806
   6.120        126.67	    12.329
   6.140        148.33	    13.342
   6.160        165.00	    14.071
   6.180        140.00	    12.961
   6.200        190.83	    15.133
   6.220        190.00	    15.100
   6.240        224.17	    16.401
   6.260        205.83	    15.716
   6.280        217.50	    16.155
   6.300        235.00	    16.793
   6.320        260.83	    17.692
   6.340        243.33	    17.088
   6.360        223.33	    16.371
   6.380        214.17	    16.031
   6.400        188.33	    15.033
   6.420        164.17	    14.036
   6.440        158.33	    13.784
   6.460        153.33	    13.565
   6.480        125.00	    12.247
   6.500        135.00	    12.728
   6.520        107.50	    11.358
   6.540        111.67	    11.576
   6.560        125.00	    12.247
   6.580        105.00	    11.225
   6.600        108.33	    11.402
   6.620        105.00	    11.225
   6.640         95.83	    10.724
   6.660         87.50	    10.247
   6.680         90.00	    10.392
   6.700         92.50	    10.536
   6.720         86.67	    10.198
   6.740        111.67	    11.576
   6.760        105.00	    11.225
   6.780         95.83	    10.724
   6.800        100.00	    10.954
   6.820        103.33	    11.136
   6.840        103.33	    11.136
   6.860        104.17	    11.180
   6.880         97.50	    10.817
   6.900         90.00	    10.392
   6.920         83.33	    10.000
   6.940        105.83	    11.269
   6.960         92.50	    10.536
   6.980         96.67	    10.770
   7.000         95.00	    10.677
   7.020         88.33	    10.296
   7.040         79.17	     9.747
   7.060         95.00	    10.677
   7.080        102.50	    11.091
   7.100         93.33	    10.583
   7.120        115.83	    11.790
   7.140         83.33	    10.000
   7.160         91.67	    10.488
   7.180        101.67	    11.045
   7.200         85.00	    10.100
   7.220         80.00	     9.798
   7.240         73.33	     9.381
   7.260         89.17	    10.344
   7.280         89.17	    10.344
   7.300        119.17	    11.958
   7.320         84.17	    10.050
   7.340         75.83	     9.539
   7.360         94.17	    10.630
   7.380         85.83	    10.149
   7.400         86.67	    10.198
   7.420         88.33	    10.296
   7.440        108.33	    11.402
   7.460         87.50	    10.247
   7.480         83.33	    10.000
   7.500         93.33	    10.583
   7.520         90.00	    10.392
   7.540         97.50	    10.817
   7.560         83.33	    10.000
   7.580         82.50	     9.950
   7.600         78.33	     9.695
   7.620         73.33	     9.381
   7.640         93.33	    10.583
   7.660         80.83	     9.849
   7.680         65.83	     8.888
   7.700         98.33	    10.863
   7.720         65.83	     8.888
   7.740         70.00	     9.165
   7.760         78.33	     9.695
   7.780         95.83	    10.724
   7.800         73.33	     9.381
   7.820         76.67	     9.592
   7.840         85.00	    10.100
   7.860         77.50	     9.644
   7.880         71.67	     9.274
   7.900         90.83	    10.440
   7.920         74.17	     9.434
   7.940         93.33	    10.583
   7.960         71.67	     9.274
   7.980         85.00	    10.100
   8.000         65.83	     8.888
   8.020         77.50	     9.644
   8.040         80.00	     9.798
   8.060         83.33	    10.000
   8.080         75.83	     9.539
   8.100         85.00	    10.100
   8.120         82.50	     9.950
   8.140         70.00	     9.165
   8.160         75.00	     9.487
   8.180         77.50	     9.644
   8.200         75.83	     9.539
   8.220         70.83	     9.220
   8.240         80.83	     9.849
   8.260         80.83	     9.849
   8.280         66.67	     8.944
   8.300         84.17	    10.050
   8.320         77.50	     9.644
   8.340         90.83	    10.440
   8.360         70.83	     9.220
   8.380         89.17	    10.344
   8.400         76.67	     9.592
   8.420         84.17	    10.050
   8.440         67.50	     9.000
   8.460         81.67	     9.899
   8.480         81.67	     9.899
   8.500         98.33	    10.863
   8.520         77.50	     9.644
   8.540         76.67	     9.592
   8.560         95.00	    10.677
   8.580         88.33	    10.296
   8.600         97.50	    10.817
   8.620         89.17	    10.344
   8.640        104.17	    11.180
   8.660        106.67	    11.314
   8.680        107.50	    11.358
   8.700        121.67	    12.083
   8.720        114.17	    11.705
   8.740        107.50	    11.358
   8.760        150.83	    13.454
   8.780        139.17	    12.923
   8.800        163.33	    14.000
   8.820        176.67	    14.560
   8.840        215.00	    16.062
   8.860        248.33	    17.263
   8.880        266.67	    17.889
   8.900        322.50	    19.672
   8.920        359.17	    20.761
   8.940        494.17	    24.352
   8.960        549.17	    25.671
   8.980        665.00	    28.249
   9.000        668.33	    28.320
   9.020        622.50	    27.331
   9.040        479.17	    23.979
   9.060        283.33	    18.439
   9.080        184.17	    14.866
   9.100        120.00	    12.000
   9.120        124.17	    12.207
   9.140        103.33	    11.136
   9.160        117.50	    11.874
   9.180        105.00	    11.225
   9.200         73.33	     9.381
   9.220         96.67	    10.770
   9.240         90.83	    10.440
   9.260         94.17	    10.630
   9.280        110.83	    11.533
   9.300        104.17	    11.180
   9.320         85.00	    10.100
   9.340         85.83	    10.149
   9.360         91.67	    10.488
   9.380         71.67	     9.274
   9.400         53.33	     8.000
   9.420         70.83	     9.220
   9.440         64.17	     8.775
   9.460         65.83	     8.888
   9.480         80.83	     9.849
   9.500         60.00	     8.485
   9.520         60.00	     8.485
   9.540         93.33	    10.583
   9.560         71.67	     9.274
   9.580         80.83	     9.849
   9.600         64.17	     8.775
   9.620         69.17	     9.110
   9.640         73.33	     9.381
   9.660         68.33	     9.055
   9.680         51.67	     7.874
   9.700         68.33	     9.055
   9.720         60.83	     8.544
   9.740         59.17	     8.426
   9.760         52.50	     7.937
   9.780         54.17	     8.062
   9.800         56.67	     8.246
   9.820         50.00	     7.746
   9.840         50.00	     7.746
   9.860         60.83	     8.544
   9.880         56.67	     8.246
   9.900         49.17	     7.681
   9.920         67.50	     9.000
   9.940         79.17	     9.747
   9.960         49.17	     7.681
   9.980         58.33	     8.367
  10.000         50.00	     7.746
  10.020         47.50	     7.550
  10.040         50.00	     7.746
  10.060         45.00	     7.348
  10.080         43.33	     7.211
  10.100         60.00	     8.485
  10.120         43.33	     7.211
  10.140         36.67	     6.633
  10.160         50.83	     7.810
  10.180         40.00	     6.928
  10.200         37.50	     6.708
  10.220         57.50	     8.307
  10.240         64.17	     8.775
  10.260         64.17	     8.775
  10.280         46.67	     7.483
  10.300         50.00	     7.746
  10.320         47.50	     7.550
  10.340         59.17	     8.426
  10.360         62.50	     8.660
  10.380         43.33	     7.211
  10.400         65.83	     8.888
  10.420         47.50	     7.550
  10.440         45.83	     7.416
  10.460         43.33	     7.211
  10.480         57.50	     8.307
  10.500         65.00	     8.832
  10.520         53.33	     8.000
  10.540         59.17	     8.426
  10.560         65.83	     8.888
  10.580         87.50	    10.247
  10.600         77.50	     9.644
  10.620        123.33	    12.166
  10.640        136.67	    12.806
  10.660        121.67	    12.083
  10.680        106.67	    11.314
  10.700         67.50	     9.000
  10.720         49.17	     7.681
  10.740         51.67	     7.874
  10.760         47.50	     7.550
  10.780         55.83	     8.185
  10.800         59.17	     8.426
  10.820         62.50	     8.660
  10.840         39.17	     6.856
  10.860         60.83	     8.544
  10.880         40.00	     6.928
  10.900         44.17	     7.280
  10.920         42.50	     7.141
  10.940         61.67	     8.602
  10.960         46.67	     7.483
  10.980         47.50	     7.550
  11.000         41.67	     7.071
  11.020         50.00	     7.746
  11.040         44.17	     7.280
  11.060         61.67	     8.602
  11.080         43.33	     7.211
  11.100         51.67	     7.874
  11.120         54.17	     8.062
  11.140         33.33	     6.325
  11.160         46.67	     7.483
  11.180         57.50	     8.307
  11.200         39.17	     6.856
  11.220         35.00	     6.481
  11.240         45.83	     7.416
  11.260         47.50	     7.550
  11.280         49.17	     7.681
  11.300         47.50	     7.550
  11.320         34.17	     6.403
  11.340         47.50	     7.550
  11.360         49.17	     7.681
  11.380         39.17	     6.856
  11.400         45.83	     7.416
  11.420         52.50	     7.937
  11.440         57.50	     8.307
  11.460         50.83	     7.810
  11.480         49.17	     7.681
  11.500         56.67	     8.246
  11.520         36.67	     6.633
  11.540         43.33	     7.211
  11.560         45.00	     7.348
  11.580         50.00	     7.746
  11.600         48.33	     7.616
  11.620         48.33	     7.616
  11.640         51.67	     7.874
  11.660         50.00	     7.746
  11.680         44.17	     7.280
  11.700         40.00	     6.928
  11.720         35.83	     6.557
  11.740         42.50	     7.141
  11.760         52.50	     7.937
  11.780         45.00	     7.348
  11.800         48.33	     7.616
  11.820         47.50	     7.550
  11.840         48.33	     7.616
  11.860         52.50	     7.937
  11.880         50.00	     7.746
  11.900         36.67	     6.633
  11.920         37.50	     6.708
  11.940         44.17	     7.280
  11.960         50.83	     7.810
  11.980         57.50	     8.307
  12.000         55.83	     8.185
  12.020         64.17	     8.775
  12.040         44.17	     7.280
  12.060         65.00	     8.832
  12.080         70.00	     9.165
  12.100         73.33	     9.381
  12.120         75.83	     9.539
  12.140         84.17	    10.050
  12.160         83.33	    10.000
  12.180         93.33	    10.583
  12.200        126.67	    12.329
  12.220        141.67	    13.038
  12.240        165.00	    14.071
  12.260        203.33	    15.620
  12.280        314.17	    19.416
  12.300        352.50	    20.567
  12.320        323.33	    19.698
  12.340        278.33	    18.276
  12.360        197.50	    15.395
  12.380        138.33	    12.884
