
Filename:
	C:\Program Files\Thermo Electron\WinXRD\Datafiles\F_HERMAN\FIEN\1_5_SEPT_FILTER.raw

File Created:
	December 18, 2018 - 06:12 PM

Specimen Id:
	1.5 SEPTEMBER AG  FILTER

Specimen Name:
	

Specimen Description:
	

Comment:
Scan Type: 2Theta Scan
Start Angle: 1 deg.
Stop Angle: 65 deg.
Num Points: 3201
Step Size: 0.02 deg.
Scan Rate: 1.000000
Scan Mode: Continuous
Wavelength: 1.540562
\Kalpha1: 1.540562	\Kalpha2: 1.544390	\Kbeta: 1.392218

Optics:
		Detector:
			 Type: Fixed Slits
		Tube: 
			 Type: Fixed Slits


Datas:
 Pos [deg]       Rate [CPS]      ESD [-]

Range 1 ---> Iteration 1
   1.000        865.00	    32.218
   1.020        800.00	    30.984
   1.040        560.83	    25.942
   1.060        572.50	    26.211
   1.080        485.00	    24.125
   1.100        424.17	    22.561
   1.120        384.17	    21.471
   1.140        376.67	    21.260
   1.160        410.00	    22.181
   1.180        403.33	    22.000
   1.200        460.00	    23.495
   1.220        376.67	    21.260
   1.240        363.33	    20.881
   1.260        386.67	    21.541
   1.280        463.33	    23.580
   1.300        540.83	    25.475
   1.320        608.33	    27.019
   1.340        780.00	    30.594
   1.360        899.17	    32.848
   1.380       1109.17	    36.483
   1.400       1228.33	    38.393
   1.420       1180.00	    37.630
   1.440       1219.17	    38.249
   1.460       1064.17	    35.735
   1.480       1075.00	    35.917
   1.500       1090.00	    36.166
   1.520       1065.00	    35.749
   1.540       1052.50	    35.539
   1.560        940.83	    33.601
   1.580        950.00	    33.764
   1.600        845.83	    31.859
   1.620        834.17	    31.639
   1.640        792.50	    30.838
   1.660        756.67	    30.133
   1.680        729.17	    29.580
   1.700        640.83	    27.731
   1.720        566.67	    26.077
   1.740        535.83	    25.357
   1.760        511.67	    24.779
   1.780        514.17	    24.839
   1.800        455.00	    23.367
   1.820        412.50	    22.249
   1.840        404.17	    22.023
   1.860        377.50	    21.284
   1.880        360.83	    20.809
   1.900        343.33	    20.298
   1.920        373.33	    21.166
   1.940        350.00	    20.494
   1.960        365.00	    20.928
   1.980        363.33	    20.881
   2.000        322.50	    19.672
   2.020        341.67	    20.248
   2.040        317.50	    19.519
   2.060        303.33	    19.079
   2.080        322.50	    19.672
   2.100        280.83	    18.358
   2.120        285.00	    18.493
   2.140        268.33	    17.944
   2.160        265.00	    17.833
   2.180        288.33	    18.601
   2.200        266.67	    17.889
   2.220        261.67	    17.720
   2.240        241.67	    17.029
   2.260        262.50	    17.748
   2.280        274.17	    18.138
   2.300        252.50	    17.407
   2.320        252.50	    17.407
   2.340        239.17	    16.941
   2.360        238.33	    16.912
   2.380        235.83	    16.823
   2.400        231.67	    16.673
   2.420        214.17	    16.031
   2.440        210.83	    15.906
   2.460        226.67	    16.492
   2.480        234.17	    16.763
   2.500        238.33	    16.912
   2.520        207.50	    15.780
   2.540        216.67	    16.125
   2.560        199.17	    15.460
   2.580        196.67	    15.362
   2.600        216.67	    16.125
   2.620        204.17	    15.652
   2.640        192.50	    15.199
   2.660        191.67	    15.166
   2.680        196.67	    15.362
   2.700        210.83	    15.906
   2.720        204.17	    15.652
   2.740        210.00	    15.875
   2.760        201.67	    15.556
   2.780        196.67	    15.362
   2.800        195.00	    15.297
   2.820        164.17	    14.036
   2.840        177.50	    14.595
   2.860        192.50	    15.199
   2.880        185.83	    14.933
   2.900        185.83	    14.933
   2.920        180.00	    14.697
   2.940        167.50	    14.177
   2.960        176.67	    14.560
   2.980        179.17	    14.663
   3.000        177.50	    14.595
   3.020        169.17	    14.248
   3.040        172.50	    14.387
   3.060        170.83	    14.318
   3.080        198.33	    15.427
   3.100        155.00	    13.638
   3.120        167.50	    14.177
   3.140        180.00	    14.697
   3.160        165.83	    14.107
   3.180        142.50	    13.077
   3.200        193.33	    15.232
   3.220        160.83	    13.892
   3.240        160.83	    13.892
   3.260        165.83	    14.107
   3.280        160.83	    13.892
   3.300        129.17	    12.450
   3.320        152.50	    13.528
   3.340        157.50	    13.748
   3.360        134.17	    12.689
   3.380        145.83	    13.229
   3.400        143.33	    13.115
   3.420        156.67	    13.711
   3.440        134.17	    12.689
   3.460        134.17	    12.689
   3.480        122.50	    12.124
   3.500        135.00	    12.728
   3.520        130.83	    12.530
   3.540        138.33	    12.884
   3.560        138.33	    12.884
   3.580        156.67	    13.711
   3.600        120.83	    12.042
   3.620        134.17	    12.689
   3.640        135.83	    12.767
   3.660        146.67	    13.266
   3.680        136.67	    12.806
   3.700        138.33	    12.884
   3.720        129.17	    12.450
   3.740        141.67	    13.038
   3.760        136.67	    12.806
   3.780        122.50	    12.124
   3.800        124.17	    12.207
   3.820        148.33	    13.342
   3.840        146.67	    13.266
   3.860        119.17	    11.958
   3.880        114.17	    11.705
   3.900        125.00	    12.247
   3.920        123.33	    12.166
   3.940        124.17	    12.207
   3.960        132.50	    12.610
   3.980        122.50	    12.124
   4.000        113.33	    11.662
   4.020        141.67	    13.038
   4.040        113.33	    11.662
   4.060        124.17	    12.207
   4.080        105.00	    11.225
   4.100        119.17	    11.958
   4.120        110.00	    11.489
   4.140        123.33	    12.166
   4.160         95.00	    10.677
   4.180        116.67	    11.832
   4.200        117.50	    11.874
   4.220        116.67	    11.832
   4.240        120.00	    12.000
   4.260        127.50	    12.369
   4.280        110.83	    11.533
   4.300        104.17	    11.180
   4.320         91.67	    10.488
   4.340        116.67	    11.832
   4.360        108.33	    11.402
   4.380         97.50	    10.817
   4.400        110.83	    11.533
   4.420        116.67	    11.832
   4.440        100.83	    11.000
   4.460        108.33	    11.402
   4.480        114.17	    11.705
   4.500         98.33	    10.863
   4.520         91.67	    10.488
   4.540         99.17	    10.909
   4.560        110.83	    11.533
   4.580        101.67	    11.045
   4.600        109.17	    11.446
   4.620         84.17	    10.050
   4.640         98.33	    10.863
   4.660        101.67	    11.045
   4.680        100.83	    11.000
   4.700         95.83	    10.724
   4.720         88.33	    10.296
   4.740        107.50	    11.358
   4.760        111.67	    11.576
   4.780        100.00	    10.954
   4.800         95.83	    10.724
   4.820        103.33	    11.136
   4.840         81.67	     9.899
   4.860         95.00	    10.677
   4.880         91.67	    10.488
   4.900         90.00	    10.392
   4.920         83.33	    10.000
   4.940         91.67	    10.488
   4.960         88.33	    10.296
   4.980         80.00	     9.798
   5.000         97.50	    10.817
   5.020         89.17	    10.344
   5.040         78.33	     9.695
   5.060         90.83	    10.440
   5.080        108.33	    11.402
   5.100         80.00	     9.798
   5.120         83.33	    10.000
   5.140         70.00	     9.165
   5.160         89.17	    10.344
   5.180         84.17	    10.050
   5.200         77.50	     9.644
   5.220         76.67	     9.592
   5.240         72.50	     9.327
   5.260         76.67	     9.592
   5.280         72.50	     9.327
   5.300         84.17	    10.050
   5.320         85.00	    10.100
   5.340         80.83	     9.849
   5.360         80.83	     9.849
   5.380         90.83	    10.440
   5.400         71.67	     9.274
   5.420         80.00	     9.798
   5.440         68.33	     9.055
   5.460         70.00	     9.165
   5.480         80.83	     9.849
   5.500         74.17	     9.434
   5.520         79.17	     9.747
   5.540         84.17	    10.050
   5.560         74.17	     9.434
   5.580         72.50	     9.327
   5.600         57.50	     8.307
   5.620         87.50	    10.247
   5.640         75.00	     9.487
   5.660         66.67	     8.944
   5.680         70.83	     9.220
   5.700         82.50	     9.950
   5.720         80.83	     9.849
   5.740         75.00	     9.487
   5.760         78.33	     9.695
   5.780         80.00	     9.798
   5.800         62.50	     8.660
   5.820         85.00	    10.100
   5.840         70.00	     9.165
   5.860         77.50	     9.644
   5.880         51.67	     7.874
   5.900         71.67	     9.274
   5.920         86.67	    10.198
   5.940         76.67	     9.592
   5.960         63.33	     8.718
   5.980         64.17	     8.775
   6.000         80.83	     9.849
   6.020         79.17	     9.747
   6.040         70.00	     9.165
   6.060         89.17	    10.344
   6.080         77.50	     9.644
   6.100         82.50	     9.950
   6.120         75.83	     9.539
   6.140         71.67	     9.274
   6.160         75.83	     9.539
   6.180         79.17	     9.747
   6.200         71.67	     9.274
   6.220         72.50	     9.327
   6.240         83.33	    10.000
   6.260         75.83	     9.539
   6.280         88.33	    10.296
   6.300         75.00	     9.487
   6.320         75.83	     9.539
   6.340         61.67	     8.602
   6.360         87.50	    10.247
   6.380         81.67	     9.899
   6.400         68.33	     9.055
   6.420         85.83	    10.149
   6.440         80.00	     9.798
   6.460         89.17	    10.344
   6.480         80.00	     9.798
   6.500         85.83	    10.149
   6.520         81.67	     9.899
   6.540         74.17	     9.434
   6.560         88.33	    10.296
   6.580         73.33	     9.381
   6.600         76.67	     9.592
   6.620         75.83	     9.539
   6.640         62.50	     8.660
   6.660         75.83	     9.539
   6.680         67.50	     9.000
   6.700         63.33	     8.718
   6.720         70.00	     9.165
   6.740         61.67	     8.602
   6.760         62.50	     8.660
   6.780         60.00	     8.485
   6.800         62.50	     8.660
   6.820         55.83	     8.185
   6.840         67.50	     9.000
   6.860         67.50	     9.000
   6.880         55.83	     8.185
   6.900         53.33	     8.000
   6.920         62.50	     8.660
   6.940         57.50	     8.307
   6.960         62.50	     8.660
   6.980         60.83	     8.544
   7.000         65.83	     8.888
   7.020         56.67	     8.246
   7.040         62.50	     8.660
   7.060         55.00	     8.124
   7.080         65.00	     8.832
   7.100         59.17	     8.426
   7.120         54.17	     8.062
   7.140         65.00	     8.832
   7.160         50.00	     7.746
   7.180         50.83	     7.810
   7.200         50.00	     7.746
   7.220         58.33	     8.367
   7.240         59.17	     8.426
   7.260         62.50	     8.660
   7.280         64.17	     8.775
   7.300         61.67	     8.602
   7.320         66.67	     8.944
   7.340         55.83	     8.185
   7.360         45.83	     7.416
   7.380         59.17	     8.426
   7.400         39.17	     6.856
   7.420         56.67	     8.246
   7.440         50.00	     7.746
   7.460         59.17	     8.426
   7.480         58.33	     8.367
   7.500         53.33	     8.000
   7.520         50.00	     7.746
   7.540         44.17	     7.280
   7.560         66.67	     8.944
   7.580         56.67	     8.246
   7.600         59.17	     8.426
   7.620         55.00	     8.124
   7.640         56.67	     8.246
   7.660         58.33	     8.367
   7.680         36.67	     6.633
   7.700         50.00	     7.746
   7.720         57.50	     8.307
   7.740         53.33	     8.000
   7.760         62.50	     8.660
   7.780         45.00	     7.348
   7.800         55.00	     8.124
   7.820         59.17	     8.426
   7.840         45.00	     7.348
   7.860         49.17	     7.681
   7.880         64.17	     8.775
   7.900         48.33	     7.616
   7.920         49.17	     7.681
   7.940         55.00	     8.124
   7.960         45.00	     7.348
   7.980         50.83	     7.810
   8.000         39.17	     6.856
   8.020         52.50	     7.937
   8.040         47.50	     7.550
   8.060         48.33	     7.616
   8.080         57.50	     8.307
   8.100         50.83	     7.810
   8.120         50.00	     7.746
   8.140         48.33	     7.616
   8.160         53.33	     8.000
   8.180         55.83	     8.185
   8.200         55.83	     8.185
   8.220         58.33	     8.367
   8.240         40.00	     6.928
   8.260         55.00	     8.124
   8.280         50.83	     7.810
   8.300         42.50	     7.141
   8.320         49.17	     7.681
   8.340         33.33	     6.325
   8.360         55.00	     8.124
   8.380         55.00	     8.124
   8.400         55.00	     8.124
   8.420         41.67	     7.071
   8.440         48.33	     7.616
   8.460         56.67	     8.246
   8.480         42.50	     7.141
   8.500         44.17	     7.280
   8.520         40.83	     7.000
   8.540         52.50	     7.937
   8.560         41.67	     7.071
   8.580         47.50	     7.550
   8.600         49.17	     7.681
   8.620         42.50	     7.141
   8.640         54.17	     8.062
   8.660         55.83	     8.185
   8.680         44.17	     7.280
   8.700         30.83	     6.083
   8.720         45.83	     7.416
   8.740         65.83	     8.888
   8.760         45.83	     7.416
   8.780         44.17	     7.280
   8.800         49.17	     7.681
   8.820         68.33	     9.055
   8.840         61.67	     8.602
   8.860         55.00	     8.124
   8.880         59.17	     8.426
   8.900         57.50	     8.307
   8.920         43.33	     7.211
   8.940         62.50	     8.660
   8.960         48.33	     7.616
   8.980         50.00	     7.746
   9.000         55.83	     8.185
   9.020         58.33	     8.367
   9.040         70.00	     9.165
   9.060         78.33	     9.695
   9.080         68.33	     9.055
   9.100         74.17	     9.434
   9.120         77.50	     9.644
   9.140        105.00	    11.225
   9.160        130.00	    12.490
   9.180        125.83	    12.288
   9.200        110.83	    11.533
   9.220        101.67	    11.045
   9.240         84.17	    10.050
   9.260         76.67	     9.592
   9.280         85.83	    10.149
   9.300         84.17	    10.050
   9.320         67.50	     9.000
   9.340         61.67	     8.602
   9.360         59.17	     8.426
   9.380         50.83	     7.810
   9.400         57.50	     8.307
   9.420         46.67	     7.483
   9.440         54.17	     8.062
   9.460         50.83	     7.810
   9.480         45.83	     7.416
   9.500         42.50	     7.141
   9.520         39.17	     6.856
   9.540         48.33	     7.616
   9.560         43.33	     7.211
   9.580         48.33	     7.616
   9.600         47.50	     7.550
   9.620         39.17	     6.856
   9.640         53.33	     8.000
   9.660         43.33	     7.211
   9.680         39.17	     6.856
   9.700         38.33	     6.782
   9.720         31.67	     6.164
   9.740         55.00	     8.124
   9.760         35.83	     6.557
   9.780         39.17	     6.856
   9.800         41.67	     7.071
   9.820         33.33	     6.325
   9.840         42.50	     7.141
   9.860         35.83	     6.557
   9.880         43.33	     7.211
   9.900         35.83	     6.557
   9.920         35.83	     6.557
   9.940         41.67	     7.071
   9.960         42.50	     7.141
   9.980         40.83	     7.000
  10.000         42.50	     7.141
  10.020         27.50	     5.745
  10.040         43.33	     7.211
  10.060         39.17	     6.856
  10.080         36.67	     6.633
  10.100         39.17	     6.856
  10.120         43.33	     7.211
  10.140         32.50	     6.245
  10.160         29.17	     5.916
  10.180         35.83	     6.557
  10.200         44.17	     7.280
  10.220         35.83	     6.557
  10.240         35.83	     6.557
  10.260         41.67	     7.071
  10.280         37.50	     6.708
  10.300         30.83	     6.083
  10.320         35.83	     6.557
  10.340         32.50	     6.245
  10.360         35.00	     6.481
  10.380         31.67	     6.164
  10.400         35.83	     6.557
  10.420         34.17	     6.403
  10.440         32.50	     6.245
  10.460         31.67	     6.164
  10.480         34.17	     6.403
  10.500         34.17	     6.403
  10.520         47.50	     7.550
  10.540         35.83	     6.557
  10.560         30.00	     6.000
  10.580         38.33	     6.782
  10.600         30.83	     6.083
  10.620         43.33	     7.211
  10.640         33.33	     6.325
  10.660         45.00	     7.348
  10.680         38.33	     6.782
  10.700         40.83	     7.000
  10.720         45.83	     7.416
  10.740         37.50	     6.708
  10.760         53.33	     8.000
  10.780         50.83	     7.810
  10.800         40.00	     6.928
  10.820         58.33	     8.367
  10.840         55.00	     8.124
  10.860         57.50	     8.307
  10.880         45.00	     7.348
  10.900         40.83	     7.000
  10.920         47.50	     7.550
  10.940         52.50	     7.937
  10.960         28.33	     5.831
  10.980         27.50	     5.745
  11.000         32.50	     6.245
  11.020         31.67	     6.164
  11.040         33.33	     6.325
  11.060         39.17	     6.856
  11.080         33.33	     6.325
  11.100         38.33	     6.782
  11.120         36.67	     6.633
  11.140         28.33	     5.831
  11.160         30.83	     6.083
  11.180         40.00	     6.928
  11.200         35.83	     6.557
  11.220         33.33	     6.325
  11.240         41.67	     7.071
  11.260         37.50	     6.708
  11.280         40.00	     6.928
  11.300         32.50	     6.245
  11.320         38.33	     6.782
  11.340         36.67	     6.633
  11.360         38.33	     6.782
  11.380         34.17	     6.403
  11.400         40.00	     6.928
  11.420         39.17	     6.856
  11.440         29.17	     5.916
  11.460         42.50	     7.141
  11.480         35.00	     6.481
  11.500         36.67	     6.633
  11.520         28.33	     5.831
  11.540         41.67	     7.071
  11.560         35.83	     6.557
  11.580         29.17	     5.916
  11.600         31.67	     6.164
  11.620         29.17	     5.916
  11.640         30.00	     6.000
  11.660         34.17	     6.403
  11.680         35.83	     6.557
  11.700         31.67	     6.164
  11.720         29.17	     5.916
  11.740         24.17	     5.385
  11.760         31.67	     6.164
  11.780         33.33	     6.325
  11.800         33.33	     6.325
  11.820         21.67	     5.099
  11.840         30.00	     6.000
  11.860         31.67	     6.164
  11.880         37.50	     6.708
  11.900         30.00	     6.000
  11.920         29.17	     5.916
  11.940         32.50	     6.245
  11.960         31.67	     6.164
  11.980         24.17	     5.385
  12.000         36.67	     6.633
  12.020         40.00	     6.928
  12.040         25.83	     5.568
  12.060         30.83	     6.083
  12.080         29.17	     5.916
  12.100         28.33	     5.831
  12.120         24.17	     5.385
  12.140         38.33	     6.782
  12.160         25.83	     5.568
  12.180         27.50	     5.745
  12.200         30.83	     6.083
  12.220         35.00	     6.481
  12.240         35.83	     6.557
  12.260         40.00	     6.928
  12.280         29.17	     5.916
  12.300         34.17	     6.403
  12.320         29.17	     5.916
  12.340         37.50	     6.708
  12.360         49.17	     7.681
  12.380         44.17	     7.280
