
Filename:
	C:\Program Files\Thermo Electron\WinXRD\Datafiles\F_HERMAN\FIEN\22_1_SEPT_FILTER.raw

File Created:
	December 20, 2018 - 02:57 PM

Specimen Id:
	22.1 SEPT FILTRE

Specimen Name:
	

Specimen Description:
	

Comment:
Scan Type: 2Theta Scan
Start Angle: 1 deg.
Stop Angle: 65 deg.
Num Points: 3201
Step Size: 0.02 deg.
Scan Rate: 1.000000
Scan Mode: Continuous
Wavelength: 1.540562
\Kalpha1: 1.540562	\Kalpha2: 1.544390	\Kbeta: 1.392218

Optics:
		Detector:
			 Type: Fixed Slits
		Tube: 
			 Type: Fixed Slits


Datas:
 Pos [deg]       Rate [CPS]      ESD [-]

Range 1 ---> Iteration 1
   1.000        775.83	    30.512
   1.020        820.00	    31.369
   1.040        630.83	    27.514
   1.060        678.33	    28.531
   1.080        505.83	    24.637
   1.100        507.50	    24.678
   1.120        433.33	    22.804
   1.140        380.83	    21.378
   1.160        475.00	    23.875
   1.180        440.83	    23.000
   1.200        418.33	    22.405
   1.220        357.50	    20.712
   1.240        398.33	    21.863
   1.260        443.33	    23.065
   1.280        439.17	    22.956
   1.300        615.00	    27.166
   1.320        674.17	    28.443
   1.340        830.83	    31.575
   1.360       1125.00	    36.742
   1.380       1328.33	    39.925
   1.400       1260.83	    38.897
   1.420       1285.00	    39.268
   1.440       1238.33	    38.549
   1.460       1275.83	    39.128
   1.480       1275.00	    39.115
   1.500       1165.00	    37.390
   1.520       1125.83	    36.756
   1.540       1196.67	    37.895
   1.560       1072.50	    35.875
   1.580       1015.83	    34.914
   1.600        975.83	    34.220
   1.620        931.67	    33.437
   1.640        942.50	    33.630
   1.660        901.67	    32.894
   1.680        904.17	    32.939
   1.700        739.17	    29.783
   1.720        693.33	    28.844
   1.740        708.33	    29.155
   1.760        617.50	    27.221
   1.780        583.33	    26.458
   1.800        543.33	    25.534
   1.820        509.17	    24.718
   1.840        504.17	    24.597
   1.860        532.50	    25.278
   1.880        482.50	    24.062
   1.900        483.33	    24.083
   1.920        453.33	    23.324
   1.940        437.50	    22.913
   1.960        461.67	    23.537
   1.980        443.33	    23.065
   2.000        437.50	    22.913
   2.020        420.83	    22.472
   2.040        410.83	    22.204
   2.060        403.33	    22.000
   2.080        405.00	    22.045
   2.100        387.50	    21.564
   2.120        365.00	    20.928
   2.140        375.00	    21.213
   2.160        372.50	    21.142
   2.180        371.67	    21.119
   2.200        345.00	    20.347
   2.220        372.50	    21.142
   2.240        349.17	    20.469
   2.260        347.50	    20.421
   2.280        335.83	    20.075
   2.300        360.00	    20.785
   2.320        319.17	    19.570
   2.340        313.33	    19.391
   2.360        305.00	    19.131
   2.380        297.50	    18.894
   2.400        348.33	    20.445
   2.420        280.00	    18.330
   2.440        307.50	    19.209
   2.460        293.33	    18.762
   2.480        306.67	    19.183
   2.500        300.83	    19.000
   2.520        281.67	    18.385
   2.540        269.17	    17.972
   2.560        301.67	    19.026
   2.580        305.83	    19.157
   2.600        255.83	    17.521
   2.620        285.00	    18.493
   2.640        256.67	    17.550
   2.660        292.50	    18.735
   2.680        256.67	    17.550
   2.700        235.00	    16.793
   2.720        245.83	    17.176
   2.740        294.17	    18.788
   2.760        259.17	    17.635
   2.780        270.83	    18.028
   2.800        265.83	    17.861
   2.820        230.83	    16.643
   2.840        250.00	    17.321
   2.860        250.00	    17.321
   2.880        212.50	    15.969
   2.900        260.83	    17.692
   2.920        259.17	    17.635
   2.940        247.50	    17.234
   2.960        235.83	    16.823
   2.980        226.67	    16.492
   3.000        226.67	    16.492
   3.020        235.83	    16.823
   3.040        215.83	    16.093
   3.060        199.17	    15.460
   3.080        220.83	    16.279
   3.100        229.17	    16.583
   3.120        191.67	    15.166
   3.140        253.33	    17.436
   3.160        240.83	    17.000
   3.180        202.50	    15.588
   3.200        205.83	    15.716
   3.220        222.50	    16.340
   3.240        221.67	    16.310
   3.260        225.83	    16.462
   3.280        205.00	    15.684
   3.300        199.17	    15.460
   3.320        204.17	    15.652
   3.340        193.33	    15.232
   3.360        208.33	    15.811
   3.380        203.33	    15.620
   3.400        218.33	    16.186
   3.420        202.50	    15.588
   3.440        209.17	    15.843
   3.460        186.67	    14.967
   3.480        196.67	    15.362
   3.500        196.67	    15.362
   3.520        205.00	    15.684
   3.540        202.50	    15.588
   3.560        205.83	    15.716
   3.580        164.17	    14.036
   3.600        186.67	    14.967
   3.620        186.67	    14.967
   3.640        206.67	    15.748
   3.660        191.67	    15.166
   3.680        195.83	    15.330
   3.700        183.33	    14.832
   3.720        186.67	    14.967
   3.740        201.67	    15.556
   3.760        205.83	    15.716
   3.780        186.67	    14.967
   3.800        160.83	    13.892
   3.820        164.17	    14.036
   3.840        185.83	    14.933
   3.860        183.33	    14.832
   3.880        184.17	    14.866
   3.900        156.67	    13.711
   3.920        169.17	    14.248
   3.940        181.67	    14.765
   3.960        156.67	    13.711
   3.980        173.33	    14.422
   4.000        173.33	    14.422
   4.020        168.33	    14.213
   4.040        160.83	    13.892
   4.060        165.83	    14.107
   4.080        145.00	    13.191
   4.100        166.67	    14.142
   4.120        159.17	    13.820
   4.140        171.67	    14.353
   4.160        159.17	    13.820
   4.180        172.50	    14.387
   4.200        163.33	    14.000
   4.220        160.83	    13.892
   4.240        140.83	    13.000
   4.260        150.83	    13.454
   4.280        145.00	    13.191
   4.300        160.00	    13.856
   4.320        143.33	    13.115
   4.340        140.83	    13.000
   4.360        132.50	    12.610
   4.380        150.00	    13.416
   4.400        150.83	    13.454
   4.420        138.33	    12.884
   4.440        150.00	    13.416
   4.460        141.67	    13.038
   4.480        135.00	    12.728
   4.500        146.67	    13.266
   4.520        133.33	    12.649
   4.540        161.67	    13.928
   4.560        144.17	    13.153
   4.580        132.50	    12.610
   4.600        130.00	    12.490
   4.620        125.83	    12.288
   4.640        142.50	    13.077
   4.660        133.33	    12.649
   4.680        131.67	    12.570
   4.700        152.50	    13.528
   4.720        140.83	    13.000
   4.740        134.17	    12.689
   4.760        136.67	    12.806
   4.780        123.33	    12.166
   4.800        148.33	    13.342
   4.820        150.83	    13.454
   4.840        124.17	    12.207
   4.860        130.00	    12.490
   4.880        121.67	    12.083
   4.900        142.50	    13.077
   4.920        121.67	    12.083
   4.940        133.33	    12.649
   4.960        132.50	    12.610
   4.980        117.50	    11.874
   5.000        115.00	    11.747
   5.020        145.83	    13.229
   5.040        123.33	    12.166
   5.060        131.67	    12.570
   5.080        121.67	    12.083
   5.100        129.17	    12.450
   5.120        127.50	    12.369
   5.140        113.33	    11.662
   5.160        128.33	    12.410
   5.180        118.33	    11.916
   5.200        123.33	    12.166
   5.220        131.67	    12.570
   5.240        120.00	    12.000
   5.260        135.83	    12.767
   5.280        105.83	    11.269
   5.300        115.83	    11.790
   5.320        124.17	    12.207
   5.340        127.50	    12.369
   5.360        124.17	    12.207
   5.380        105.00	    11.225
   5.400        115.00	    11.747
   5.420        123.33	    12.166
   5.440        108.33	    11.402
   5.460        115.00	    11.747
   5.480        124.17	    12.207
   5.500        123.33	    12.166
   5.520        116.67	    11.832
   5.540        106.67	    11.314
   5.560        100.83	    11.000
   5.580        125.00	    12.247
   5.600        114.17	    11.705
   5.620        131.67	    12.570
   5.640        127.50	    12.369
   5.660        115.00	    11.747
   5.680        114.17	    11.705
   5.700        115.00	    11.747
   5.720        116.67	    11.832
   5.740        130.83	    12.530
   5.760        105.83	    11.269
   5.780        104.17	    11.180
   5.800        125.00	    12.247
   5.820        104.17	    11.180
   5.840        102.50	    11.091
   5.860         97.50	    10.817
   5.880        110.83	    11.533
   5.900        122.50	    12.124
   5.920        116.67	    11.832
   5.940        123.33	    12.166
   5.960        122.50	    12.124
   5.980        120.83	    12.042
   6.000        129.17	    12.450
   6.020        143.33	    13.115
   6.040        121.67	    12.083
   6.060        138.33	    12.884
   6.080        143.33	    13.115
   6.100        146.67	    13.266
   6.120        134.17	    12.689
   6.140        151.67	    13.491
   6.160        155.83	    13.675
   6.180        155.83	    13.675
   6.200        145.83	    13.229
   6.220        185.83	    14.933
   6.240        180.83	    14.731
   6.260        174.17	    14.457
   6.280        173.33	    14.422
   6.300        169.17	    14.248
   6.320        151.67	    13.491
   6.340        132.50	    12.610
   6.360        133.33	    12.649
   6.380        120.83	    12.042
   6.400        103.33	    11.136
   6.420        124.17	    12.207
   6.440        114.17	    11.705
   6.460        109.17	    11.446
   6.480        100.00	    10.954
   6.500         93.33	    10.583
   6.520        108.33	    11.402
   6.540        116.67	    11.832
   6.560        125.83	    12.288
   6.580        115.00	    11.747
   6.600         91.67	    10.488
   6.620         97.50	    10.817
   6.640        105.83	    11.269
   6.660        100.83	    11.000
   6.680        113.33	    11.662
   6.700         97.50	    10.817
   6.720         90.00	    10.392
   6.740        108.33	    11.402
   6.760         98.33	    10.863
   6.780         90.83	    10.440
   6.800        106.67	    11.314
   6.820        106.67	    11.314
   6.840        108.33	    11.402
   6.860        108.33	    11.402
   6.880         98.33	    10.863
   6.900        107.50	    11.358
   6.920         90.83	    10.440
   6.940         86.67	    10.198
   6.960         98.33	    10.863
   6.980         94.17	    10.630
   7.000         86.67	    10.198
   7.020         80.00	     9.798
   7.040         90.00	    10.392
   7.060         73.33	     9.381
   7.080        100.00	    10.954
   7.100        100.83	    11.000
   7.120         83.33	    10.000
   7.140         77.50	     9.644
   7.160         75.83	     9.539
   7.180         80.83	     9.849
   7.200         80.00	     9.798
   7.220         99.17	    10.909
   7.240         75.00	     9.487
   7.260         85.00	    10.100
   7.280         86.67	    10.198
   7.300         83.33	    10.000
   7.320         87.50	    10.247
   7.340         82.50	     9.950
   7.360         71.67	     9.274
   7.380         74.17	     9.434
   7.400         98.33	    10.863
   7.420         99.17	    10.909
   7.440         93.33	    10.583
   7.460         84.17	    10.050
   7.480         98.33	    10.863
   7.500         83.33	    10.000
   7.520         83.33	    10.000
   7.540         85.83	    10.149
   7.560         80.83	     9.849
   7.580         85.00	    10.100
   7.600         85.00	    10.100
   7.620         87.50	    10.247
   7.640         81.67	     9.899
   7.660         70.00	     9.165
   7.680         79.17	     9.747
   7.700         77.50	     9.644
   7.720         67.50	     9.000
   7.740         90.83	    10.440
   7.760         67.50	     9.000
   7.780         79.17	     9.747
   7.800         72.50	     9.327
   7.820         80.83	     9.849
   7.840         70.00	     9.165
   7.860         63.33	     8.718
   7.880         75.00	     9.487
   7.900         61.67	     8.602
   7.920         79.17	     9.747
   7.940         60.00	     8.485
   7.960         90.00	    10.392
   7.980         55.00	     8.124
   8.000         83.33	    10.000
   8.020         64.17	     8.775
   8.040         80.83	     9.849
   8.060         73.33	     9.381
   8.080         77.50	     9.644
   8.100         60.83	     8.544
   8.120         76.67	     9.592
   8.140         70.83	     9.220
   8.160         70.00	     9.165
   8.180         69.17	     9.110
   8.200         76.67	     9.592
   8.220         70.00	     9.165
   8.240         70.83	     9.220
   8.260         82.50	     9.950
   8.280         80.00	     9.798
   8.300         74.17	     9.434
   8.320         76.67	     9.592
   8.340         55.00	     8.124
   8.360         75.83	     9.539
   8.380         67.50	     9.000
   8.400         70.00	     9.165
   8.420         72.50	     9.327
   8.440         65.00	     8.832
   8.460         80.00	     9.798
   8.480         77.50	     9.644
   8.500         75.83	     9.539
   8.520         82.50	     9.950
   8.540         82.50	     9.950
   8.560         90.00	    10.392
   8.580         86.67	    10.198
   8.600         83.33	    10.000
   8.620         80.83	     9.849
   8.640         95.00	    10.677
   8.660         87.50	    10.247
   8.680         94.17	    10.630
   8.700         82.50	     9.950
   8.720         98.33	    10.863
   8.740        113.33	    11.662
   8.760        112.50	    11.619
   8.780        121.67	    12.083
   8.800        140.83	    13.000
   8.820        123.33	    12.166
   8.840        137.50	    12.845
   8.860        164.17	    14.036
   8.880        237.50	    16.882
   8.900        284.17	    18.466
   8.920        248.33	    17.263
   8.940        233.33	    16.733
   8.960        197.50	    15.395
   8.980        167.50	    14.177
   9.000        131.67	    12.570
   9.020        122.50	    12.124
   9.040        100.83	    11.000
   9.060         86.67	    10.198
   9.080         86.67	    10.198
   9.100         76.67	     9.592
   9.120         79.17	     9.747
   9.140         76.67	     9.592
   9.160         74.17	     9.434
   9.180         84.17	    10.050
   9.200         83.33	    10.000
   9.220         87.50	    10.247
   9.240         74.17	     9.434
   9.260         67.50	     9.000
   9.280         62.50	     8.660
   9.300         73.33	     9.381
   9.320         81.67	     9.899
   9.340         70.83	     9.220
   9.360         70.00	     9.165
   9.380         57.50	     8.307
   9.400         63.33	     8.718
   9.420         75.83	     9.539
   9.440         69.17	     9.110
   9.460         86.67	    10.198
   9.480         84.17	    10.050
   9.500         75.00	     9.487
   9.520         61.67	     8.602
   9.540         78.33	     9.695
   9.560         61.67	     8.602
   9.580         51.67	     7.874
   9.600         46.67	     7.483
   9.620         54.17	     8.062
   9.640         63.33	     8.718
   9.660         55.83	     8.185
   9.680         64.17	     8.775
   9.700         56.67	     8.246
   9.720         58.33	     8.367
   9.740         66.67	     8.944
   9.760         67.50	     9.000
   9.780         51.67	     7.874
   9.800         65.00	     8.832
   9.820         51.67	     7.874
   9.840         70.83	     9.220
   9.860         64.17	     8.775
   9.880         60.00	     8.485
   9.900         45.00	     7.348
   9.920         53.33	     8.000
   9.940         73.33	     9.381
   9.960         62.50	     8.660
   9.980         65.83	     8.888
  10.000         70.00	     9.165
  10.020         57.50	     8.307
  10.040         60.00	     8.485
  10.060         52.50	     7.937
  10.080         70.00	     9.165
  10.100         45.00	     7.348
  10.120         62.50	     8.660
  10.140         53.33	     8.000
  10.160         55.00	     8.124
  10.180         59.17	     8.426
  10.200         61.67	     8.602
  10.220         60.83	     8.544
  10.240         55.83	     8.185
  10.260         50.00	     7.746
  10.280         55.00	     8.124
  10.300         52.50	     7.937
  10.320         54.17	     8.062
  10.340         49.17	     7.681
  10.360         51.67	     7.874
  10.380         46.67	     7.483
  10.400         42.50	     7.141
  10.420         54.17	     8.062
  10.440         46.67	     7.483
  10.460         65.00	     8.832
  10.480         59.17	     8.426
  10.500         79.17	     9.747
  10.520         89.17	    10.344
  10.540         95.00	    10.677
  10.560        105.00	    11.225
  10.580         91.67	    10.488
  10.600         75.00	     9.487
  10.620         70.00	     9.165
  10.640         70.00	     9.165
  10.660         65.00	     8.832
  10.680         61.67	     8.602
  10.700         55.00	     8.124
  10.720         50.83	     7.810
  10.740         62.50	     8.660
  10.760         45.83	     7.416
  10.780         61.67	     8.602
  10.800         43.33	     7.211
  10.820         42.50	     7.141
  10.840         54.17	     8.062
  10.860         45.83	     7.416
  10.880         48.33	     7.616
  10.900         57.50	     8.307
  10.920         52.50	     7.937
  10.940         64.17	     8.775
  10.960         52.50	     7.937
  10.980         44.17	     7.280
  11.000         52.50	     7.937
  11.020         45.83	     7.416
  11.040         45.00	     7.348
  11.060         62.50	     8.660
  11.080         45.00	     7.348
  11.100         55.00	     8.124
  11.120         54.17	     8.062
  11.140         40.00	     6.928
  11.160         51.67	     7.874
  11.180         55.00	     8.124
  11.200         52.50	     7.937
  11.220         48.33	     7.616
  11.240         54.17	     8.062
  11.260         60.00	     8.485
  11.280         54.17	     8.062
  11.300         45.83	     7.416
  11.320         45.00	     7.348
  11.340         45.83	     7.416
  11.360         50.00	     7.746
  11.380         44.17	     7.280
  11.400         56.67	     8.246
  11.420         53.33	     8.000
  11.440         57.50	     8.307
  11.460         46.67	     7.483
  11.480         46.67	     7.483
  11.500         44.17	     7.280
  11.520         50.83	     7.810
  11.540         59.17	     8.426
  11.560         55.00	     8.124
  11.580         52.50	     7.937
  11.600         40.00	     6.928
  11.620         44.17	     7.280
  11.640         45.83	     7.416
  11.660         55.00	     8.124
  11.680         30.83	     6.083
  11.700         45.00	     7.348
  11.720         49.17	     7.681
  11.740         44.17	     7.280
  11.760         52.50	     7.937
  11.780         45.00	     7.348
  11.800         50.83	     7.810
  11.820         47.50	     7.550
  11.840         50.00	     7.746
  11.860         59.17	     8.426
  11.880         57.50	     8.307
  11.900         62.50	     8.660
  11.920         52.50	     7.937
  11.940         50.00	     7.746
  11.960         50.83	     7.810
  11.980         65.00	     8.832
  12.000         54.17	     8.062
  12.020         65.83	     8.888
  12.040         65.83	     8.888
  12.060         63.33	     8.718
  12.080         64.17	     8.775
  12.100         98.33	    10.863
  12.120        106.67	    11.314
  12.140        119.17	    11.958
  12.160        147.50	    13.304
  12.180        194.17	    15.264
  12.200        276.67	    18.221
  12.220        282.50	    18.412
  12.240        310.83	    19.313
  12.260        277.50	    18.248
  12.280        212.50	    15.969
  12.300        210.00	    15.875
  12.320        180.00	    14.697
  12.340        178.33	    14.629
  12.360        174.17	    14.457
  12.380        184.17	    14.866
