
Filename:
	C:\Program Files\Thermo Electron\WinXRD\Datafiles\F_HERMAN\FIEN\22_AUG_P_RT.raw

File Created:
	January 22, 2019 - 04:30 PM

Specimen Id:
	8.1 AUG (SUR SUPPORT)

Specimen Name:
	

Specimen Description:
	

Comment:
Scan Type: 2Theta Scan
Start Angle: 1 deg.
Stop Angle: 65 deg.
Num Points: 3201
Step Size: 0.02 deg.
Scan Rate: 1.000000
Scan Mode: Continuous
Wavelength: 1.540562
\Kalpha1: 1.540562	\Kalpha2: 1.544390	\Kbeta: 1.392218

Optics:
		Detector:
			 Type: Fixed Slits
		Tube: 
			 Type: Fixed Slits


Datas:
 Pos [deg]       Rate [CPS]      ESD [-]

Range 1 ---> Iteration 1
   1.000        991.67	    34.496
   1.020        653.33	    28.000
   1.040        679.17	    28.548
   1.060        565.83	    26.058
   1.080        582.50	    26.439
   1.100        522.50	    25.040
   1.120        474.17	    23.854
   1.140        531.67	    25.259
   1.160        400.00	    21.909
   1.180        392.50	    21.703
   1.200        444.17	    23.087
   1.220        395.00	    21.772
   1.240        418.33	    22.405
   1.260        417.50	    22.383
   1.280        514.17	    24.839
   1.300        538.33	    25.417
   1.320        695.00	    28.879
   1.340        860.83	    32.140
   1.360       1145.83	    37.081
   1.380       1394.17	    40.902
   1.400       1431.67	    41.449
   1.420       1508.33	    42.544
   1.440       1275.00	    39.115
   1.460       1320.00	    39.799
   1.480       1352.50	    40.286
   1.500       1310.83	    39.661
   1.520       1263.33	    38.936
   1.540       1160.83	    37.323
   1.560       1150.00	    37.148
   1.580        987.50	    34.424
   1.600       1066.67	    35.777
   1.620        984.17	    34.366
   1.640        949.17	    33.749
   1.660        982.50	    34.337
   1.680        814.17	    31.257
   1.700        761.67	    30.232
   1.720        816.67	    31.305
   1.740        730.00	    29.597
   1.760        708.33	    29.155
   1.780        636.67	    27.641
   1.800        590.83	    26.627
   1.820        572.50	    26.211
   1.840        580.00	    26.382
   1.860        550.83	    25.710
   1.880        546.67	    25.612
   1.900        553.33	    25.768
   1.920        516.67	    24.900
   1.940        520.00	    24.980
   1.960        490.00	    24.249
   1.980        455.00	    23.367
   2.000        477.50	    23.937
   2.020        448.33	    23.195
   2.040        428.33	    22.672
   2.060        497.50	    24.434
   2.080        404.17	    22.023
   2.100        439.17	    22.956
   2.120        461.67	    23.537
   2.140        421.67	    22.494
   2.160        407.50	    22.113
   2.180        414.17	    22.293
   2.200        384.17	    21.471
   2.220        404.17	    22.023
   2.240        385.83	    21.517
   2.260        370.83	    21.095
   2.280        393.33	    21.726
   2.300        370.83	    21.095
   2.320        360.83	    20.809
   2.340        351.67	    20.543
   2.360        345.00	    20.347
   2.380        348.33	    20.445
   2.400        347.50	    20.421
   2.420        326.67	    19.799
   2.440        349.17	    20.469
   2.460        351.67	    20.543
   2.480        339.17	    20.174
   2.500        335.83	    20.075
   2.520        322.50	    19.672
   2.540        297.50	    18.894
   2.560        315.83	    19.468
   2.580        355.00	    20.640
   2.600        304.17	    19.105
   2.620        315.00	    19.442
   2.640        314.17	    19.416
   2.660        286.67	    18.547
   2.680        301.67	    19.026
   2.700        307.50	    19.209
   2.720        324.17	    19.723
   2.740        287.50	    18.574
   2.760        294.17	    18.788
   2.780        316.67	    19.494
   2.800        287.50	    18.574
   2.820        302.50	    19.053
   2.840        278.33	    18.276
   2.860        251.67	    17.378
   2.880        269.17	    17.972
   2.900        295.83	    18.841
   2.920        286.67	    18.547
   2.940        264.17	    17.804
   2.960        282.50	    18.412
   2.980        292.50	    18.735
   3.000        273.33	    18.111
   3.020        273.33	    18.111
   3.040        262.50	    17.748
   3.060        264.17	    17.804
   3.080        233.33	    16.733
   3.100        261.67	    17.720
   3.120        270.83	    18.028
   3.140        246.67	    17.205
   3.160        285.00	    18.493
   3.180        252.50	    17.407
   3.200        247.50	    17.234
   3.220        250.00	    17.321
   3.240        240.83	    17.000
   3.260        233.33	    16.733
   3.280        242.50	    17.059
   3.300        245.00	    17.146
   3.320        243.33	    17.088
   3.340        231.67	    16.673
   3.360        227.50	    16.523
   3.380        240.00	    16.971
   3.400        236.67	    16.852
   3.420        221.67	    16.310
   3.440        220.83	    16.279
   3.460        214.17	    16.031
   3.480        217.50	    16.155
   3.500        220.83	    16.279
   3.520        230.83	    16.643
   3.540        211.67	    15.937
   3.560        225.83	    16.462
   3.580        210.00	    15.875
   3.600        221.67	    16.310
   3.620        197.50	    15.395
   3.640        228.33	    16.553
   3.660        218.33	    16.186
   3.680        198.33	    15.427
   3.700        215.83	    16.093
   3.720        210.00	    15.875
   3.740        181.67	    14.765
   3.760        197.50	    15.395
   3.780        205.83	    15.716
   3.800        204.17	    15.652
   3.820        223.33	    16.371
   3.840        187.50	    15.000
   3.860        199.17	    15.460
   3.880        195.83	    15.330
   3.900        198.33	    15.427
   3.920        184.17	    14.866
   3.940        200.83	    15.524
   3.960        179.17	    14.663
   3.980        191.67	    15.166
   4.000        192.50	    15.199
   4.020        198.33	    15.427
   4.040        179.17	    14.663
   4.060        180.83	    14.731
   4.080        185.83	    14.933
   4.100        191.67	    15.166
   4.120        184.17	    14.866
   4.140        180.00	    14.697
   4.160        202.50	    15.588
   4.180        186.67	    14.967
   4.200        193.33	    15.232
   4.220        194.17	    15.264
   4.240        188.33	    15.033
   4.260        153.33	    13.565
   4.280        150.00	    13.416
   4.300        151.67	    13.491
   4.320        145.83	    13.229
   4.340        167.50	    14.177
   4.360        186.67	    14.967
   4.380        172.50	    14.387
   4.400        150.83	    13.454
   4.420        158.33	    13.784
   4.440        165.83	    14.107
   4.460        162.50	    13.964
   4.480        155.00	    13.638
   4.500        160.00	    13.856
   4.520        177.50	    14.595
   4.540        166.67	    14.142
   4.560        154.17	    13.601
   4.580        145.00	    13.191
   4.600        173.33	    14.422
   4.620        168.33	    14.213
   4.640        151.67	    13.491
   4.660        165.00	    14.071
   4.680        164.17	    14.036
   4.700        155.83	    13.675
   4.720        160.83	    13.892
   4.740        154.17	    13.601
   4.760        155.83	    13.675
   4.780        155.83	    13.675
   4.800        141.67	    13.038
   4.820        159.17	    13.820
   4.840        134.17	    12.689
   4.860        155.00	    13.638
   4.880        156.67	    13.711
   4.900        146.67	    13.266
   4.920        141.67	    13.038
   4.940        125.83	    12.288
   4.960        161.67	    13.928
   4.980        157.50	    13.748
   5.000        147.50	    13.304
   5.020        168.33	    14.213
   5.040        131.67	    12.570
   5.060        163.33	    14.000
   5.080        161.67	    13.928
   5.100        150.00	    13.416
   5.120        145.00	    13.191
   5.140        147.50	    13.304
   5.160        125.83	    12.288
   5.180        137.50	    12.845
   5.200        143.33	    13.115
   5.220        133.33	    12.649
   5.240        143.33	    13.115
   5.260        149.17	    13.379
   5.280        147.50	    13.304
   5.300        119.17	    11.958
   5.320        158.33	    13.784
   5.340        153.33	    13.565
   5.360        126.67	    12.329
   5.380        135.83	    12.767
   5.400        148.33	    13.342
   5.420        169.17	    14.248
   5.440        138.33	    12.884
   5.460        139.17	    12.923
   5.480        142.50	    13.077
   5.500        141.67	    13.038
   5.520        144.17	    13.153
   5.540        155.83	    13.675
   5.560        163.33	    14.000
   5.580        123.33	    12.166
   5.600        122.50	    12.124
   5.620        138.33	    12.884
   5.640        123.33	    12.166
   5.660        121.67	    12.083
   5.680        124.17	    12.207
   5.700        135.00	    12.728
   5.720        137.50	    12.845
   5.740        132.50	    12.610
   5.760        152.50	    13.528
   5.780        140.83	    13.000
   5.800        145.83	    13.229
   5.820        115.00	    11.747
   5.840        114.17	    11.705
   5.860        119.17	    11.958
   5.880        120.00	    12.000
   5.900        139.17	    12.923
   5.920        137.50	    12.845
   5.940        115.83	    11.790
   5.960        140.83	    13.000
   5.980        150.00	    13.416
   6.000        150.00	    13.416
   6.020        133.33	    12.649
   6.040        138.33	    12.884
   6.060        159.17	    13.820
   6.080        157.50	    13.748
   6.100        169.17	    14.248
   6.120        159.17	    13.820
   6.140        200.83	    15.524
   6.160        200.83	    15.524
   6.180        195.00	    15.297
   6.200        197.50	    15.395
   6.220        195.00	    15.297
   6.240        162.50	    13.964
   6.260        163.33	    14.000
   6.280        156.67	    13.711
   6.300        150.83	    13.454
   6.320        146.67	    13.266
   6.340        133.33	    12.649
   6.360        144.17	    13.153
   6.380        140.00	    12.961
   6.400        120.83	    12.042
   6.420        138.33	    12.884
   6.440        125.00	    12.247
   6.460        130.83	    12.530
   6.480        120.00	    12.000
   6.500        119.17	    11.958
   6.520        121.67	    12.083
   6.540        125.00	    12.247
   6.560        115.83	    11.790
   6.580         97.50	    10.817
   6.600        128.33	    12.410
   6.620        112.50	    11.619
   6.640        116.67	    11.832
   6.660        119.17	    11.958
   6.680        110.83	    11.533
   6.700        113.33	    11.662
   6.720        124.17	    12.207
   6.740        124.17	    12.207
   6.760        115.00	    11.747
   6.780        116.67	    11.832
   6.800        109.17	    11.446
   6.820        110.83	    11.533
   6.840        133.33	    12.649
   6.860        111.67	    11.576
   6.880        112.50	    11.619
   6.900        103.33	    11.136
   6.920         99.17	    10.909
   6.940        103.33	    11.136
   6.960         94.17	    10.630
   6.980         93.33	    10.583
   7.000        110.00	    11.489
   7.020         96.67	    10.770
   7.040         96.67	    10.770
   7.060        107.50	    11.358
   7.080        115.83	    11.790
   7.100         95.83	    10.724
   7.120        115.83	    11.790
   7.140        114.17	    11.705
   7.160        115.83	    11.790
   7.180        120.83	    12.042
   7.200        101.67	    11.045
   7.220        103.33	    11.136
   7.240        100.83	    11.000
   7.260        100.83	    11.000
   7.280        112.50	    11.619
   7.300         90.00	    10.392
   7.320         90.83	    10.440
   7.340         99.17	    10.909
   7.360        124.17	    12.207
   7.380        107.50	    11.358
   7.400        108.33	    11.402
   7.420        100.83	    11.000
   7.440        114.17	    11.705
   7.460        100.83	    11.000
   7.480         89.17	    10.344
   7.500        115.00	    11.747
   7.520         96.67	    10.770
   7.540        105.00	    11.225
   7.560         89.17	    10.344
   7.580         95.83	    10.724
   7.600         99.17	    10.909
   7.620         98.33	    10.863
   7.640         85.83	    10.149
   7.660         97.50	    10.817
   7.680         96.67	    10.770
   7.700         95.00	    10.677
   7.720         83.33	    10.000
   7.740        114.17	    11.705
   7.760        115.83	    11.790
   7.780         80.83	     9.849
   7.800         81.67	     9.899
   7.820        106.67	    11.314
   7.840        105.83	    11.269
   7.860         99.17	    10.909
   7.880         92.50	    10.536
   7.900         94.17	    10.630
   7.920         94.17	    10.630
   7.940         84.17	    10.050
   7.960         83.33	    10.000
   7.980        107.50	    11.358
   8.000         88.33	    10.296
   8.020         99.17	    10.909
   8.040         85.00	    10.100
   8.060         90.83	    10.440
   8.080         85.83	    10.149
   8.100        105.00	    11.225
   8.120         96.67	    10.770
   8.140         82.50	     9.950
   8.160         92.50	    10.536
   8.180         92.50	    10.536
   8.200         95.83	    10.724
   8.220         96.67	    10.770
   8.240         79.17	     9.747
   8.260        121.67	    12.083
   8.280         95.00	    10.677
   8.300         84.17	    10.050
   8.320         83.33	    10.000
   8.340         95.83	    10.724
   8.360         90.00	    10.392
   8.380        107.50	    11.358
   8.400         95.83	    10.724
   8.420        100.83	    11.000
   8.440         92.50	    10.536
   8.460         72.50	     9.327
   8.480        100.83	    11.000
   8.500         89.17	    10.344
   8.520         94.17	    10.630
   8.540         90.83	    10.440
   8.560        106.67	    11.314
   8.580        122.50	    12.124
   8.600        115.00	    11.747
   8.620        113.33	    11.662
   8.640        121.67	    12.083
   8.660        127.50	    12.369
   8.680        145.83	    13.229
   8.700        125.00	    12.247
   8.720        147.50	    13.304
   8.740        160.83	    13.892
   8.760        160.83	    13.892
   8.780        196.67	    15.362
   8.800        267.50	    17.916
   8.820        418.33	    22.405
   8.840        483.33	    24.083
   8.860        454.17	    23.345
   8.880        313.33	    19.391
   8.900        149.17	    13.379
   8.920        138.33	    12.884
   8.940        111.67	    11.576
   8.960         91.67	    10.488
   8.980         89.17	    10.344
   9.000         89.17	    10.344
   9.020         74.17	     9.434
   9.040        119.17	    11.958
   9.060         92.50	    10.536
   9.080         85.00	    10.100
   9.100        118.33	    11.916
   9.120         80.83	     9.849
   9.140         86.67	    10.198
   9.160         79.17	     9.747
   9.180         90.83	    10.440
   9.200         98.33	    10.863
   9.220         70.83	     9.220
   9.240         97.50	    10.817
   9.260        110.83	    11.533
   9.280         85.00	    10.100
   9.300         77.50	     9.644
   9.320         86.67	    10.198
   9.340         68.33	     9.055
   9.360         77.50	     9.644
   9.380         75.83	     9.539
   9.400         90.00	    10.392
   9.420         79.17	     9.747
   9.440         89.17	    10.344
   9.460         82.50	     9.950
   9.480         92.50	    10.536
   9.500         75.83	     9.539
   9.520         86.67	    10.198
   9.540         82.50	     9.950
   9.560         70.00	     9.165
   9.580         89.17	    10.344
   9.600         64.17	     8.775
   9.620         85.00	    10.100
   9.640         80.83	     9.849
   9.660         75.00	     9.487
   9.680         87.50	    10.247
   9.700         66.67	     8.944
   9.720         80.00	     9.798
   9.740         85.00	    10.100
   9.760         76.67	     9.592
   9.780         79.17	     9.747
   9.800         71.67	     9.274
   9.820         88.33	    10.296
   9.840         94.17	    10.630
   9.860         66.67	     8.944
   9.880         78.33	     9.695
   9.900         75.00	     9.487
   9.920         81.67	     9.899
   9.940         85.83	    10.149
   9.960         63.33	     8.718
   9.980         75.00	     9.487
  10.000         68.33	     9.055
  10.020         68.33	     9.055
  10.040         69.17	     9.110
  10.060         80.83	     9.849
  10.080         67.50	     9.000
  10.100         64.17	     8.775
  10.120         69.17	     9.110
  10.140         65.83	     8.888
  10.160         78.33	     9.695
  10.180         76.67	     9.592
  10.200         68.33	     9.055
  10.220         68.33	     9.055
  10.240         71.67	     9.274
  10.260         75.83	     9.539
  10.280         70.00	     9.165
  10.300         73.33	     9.381
  10.320         73.33	     9.381
  10.340         75.00	     9.487
  10.360         80.00	     9.798
  10.380         68.33	     9.055
  10.400         73.33	     9.381
  10.420         72.50	     9.327
  10.440         90.83	    10.440
  10.460         89.17	    10.344
  10.480         97.50	    10.817
  10.500         69.17	     9.110
  10.520         80.83	     9.849
  10.540         79.17	     9.747
  10.560         65.83	     8.888
  10.580         83.33	    10.000
  10.600         66.67	     8.944
  10.620         75.00	     9.487
  10.640         80.00	     9.798
  10.660         74.17	     9.434
  10.680         72.50	     9.327
  10.700         59.17	     8.426
  10.720         77.50	     9.644
  10.740         54.17	     8.062
  10.760         80.83	     9.849
  10.780         70.83	     9.220
  10.800         81.67	     9.899
  10.820         80.00	     9.798
  10.840         87.50	    10.247
  10.860         68.33	     9.055
  10.880         75.00	     9.487
  10.900         77.50	     9.644
  10.920         65.00	     8.832
  10.940         76.67	     9.592
  10.960         65.00	     8.832
  10.980         62.50	     8.660
  11.000         56.67	     8.246
  11.020         74.17	     9.434
  11.040         80.83	     9.849
  11.060         60.83	     8.544
  11.080         85.83	    10.149
  11.100         65.00	     8.832
  11.120         63.33	     8.718
  11.140         75.83	     9.539
  11.160         69.17	     9.110
  11.180         62.50	     8.660
  11.200         59.17	     8.426
  11.220         65.00	     8.832
  11.240         77.50	     9.644
  11.260         67.50	     9.000
  11.280         74.17	     9.434
  11.300         59.17	     8.426
  11.320         44.17	     7.280
  11.340         53.33	     8.000
  11.360         63.33	     8.718
  11.380         66.67	     8.944
  11.400         74.17	     9.434
  11.420         72.50	     9.327
  11.440         60.00	     8.485
  11.460         70.00	     9.165
  11.480         71.67	     9.274
  11.500         67.50	     9.000
  11.520         73.33	     9.381
  11.540         68.33	     9.055
  11.560         65.00	     8.832
  11.580         75.83	     9.539
  11.600         60.00	     8.485
  11.620         65.00	     8.832
  11.640         61.67	     8.602
  11.660         62.50	     8.660
  11.680         67.50	     9.000
  11.700         70.00	     9.165
  11.720         60.83	     8.544
  11.740         70.00	     9.165
  11.760         83.33	    10.000
  11.780         62.50	     8.660
  11.800         70.00	     9.165
  11.820         57.50	     8.307
  11.840         67.50	     9.000
  11.860         63.33	     8.718
  11.880         69.17	     9.110
  11.900         53.33	     8.000
  11.920         74.17	     9.434
  11.940         59.17	     8.426
  11.960         68.33	     9.055
  11.980         75.83	     9.539
  12.000         68.33	     9.055
  12.020         66.67	     8.944
  12.040         80.83	     9.849
  12.060         86.67	    10.198
  12.080         93.33	    10.583
  12.100        120.83	    12.042
  12.120        140.00	    12.961
  12.140        173.33	    14.422
  12.160        163.33	    14.000
  12.180        169.17	    14.248
  12.200        113.33	    11.662
  12.220        114.17	    11.705
  12.240         98.33	    10.863
  12.260        112.50	    11.619
  12.280        125.00	    12.247
  12.300        124.17	    12.207
  12.320        141.67	    13.038
  12.340        170.00	    14.283
  12.360        145.83	    13.229
  12.380        155.83	    13.675
