
Filename:
	C:\Program Files\Thermo Electron\WinXRD\Datafiles\F_HERMAN\FIEN\22_AG_FILTER.raw

File Created:
	January 08, 2019 - 01:21 PM

Specimen Id:
	2.2 AUG FILTER

Specimen Name:
	

Specimen Description:
	

Comment:
Scan Type: 2Theta Scan
Start Angle: 1 deg.
Stop Angle: 65 deg.
Num Points: 3201
Step Size: 0.02 deg.
Scan Rate: 1.000000
Scan Mode: Continuous
Wavelength: 1.540562
\Kalpha1: 1.540562	\Kalpha2: 1.544390	\Kbeta: 1.392218

Optics:
		Detector:
			 Type: Fixed Slits
		Tube: 
			 Type: Fixed Slits


Datas:
 Pos [deg]       Rate [CPS]      ESD [-]

Range 1 ---> Iteration 1
   1.000       1011.67	    34.843
   1.020        937.50	    33.541
   1.040        619.17	    27.258
   1.060        522.50	    25.040
   1.080        560.83	    25.942
   1.100        569.17	    26.134
   1.120        465.00	    23.622
   1.140        460.00	    23.495
   1.160        413.33	    22.271
   1.180        403.33	    22.000
   1.200        351.67	    20.543
   1.220        403.33	    22.000
   1.240        399.17	    21.886
   1.260        401.67	    21.954
   1.280        497.50	    24.434
   1.300        540.83	    25.475
   1.320        681.67	    28.601
   1.340        792.50	    30.838
   1.360       1120.00	    36.661
   1.380       1220.00	    38.262
   1.400       1232.50	    38.458
   1.420       1277.50	    39.154
   1.440       1264.17	    38.949
   1.460       1255.83	    38.820
   1.480       1185.83	    37.723
   1.500       1188.33	    37.762
   1.520       1105.00	    36.414
   1.540       1130.83	    36.837
   1.560       1134.17	    36.892
   1.580       1005.83	    34.742
   1.600        928.33	    33.377
   1.620        938.33	    33.556
   1.640        858.33	    32.094
   1.660        851.67	    31.969
   1.680        750.00	    30.000
   1.700        735.00	    29.698
   1.720        681.67	    28.601
   1.740        645.83	    27.839
   1.760        549.17	    25.671
   1.780        593.33	    26.683
   1.800        525.83	    25.120
   1.820        500.00	    24.495
   1.840        502.50	    24.556
   1.860        511.67	    24.779
   1.880        439.17	    22.956
   1.900        452.50	    23.302
   1.920        423.33	    22.539
   1.940        425.83	    22.605
   1.960        421.67	    22.494
   1.980        397.50	    21.840
   2.000        422.50	    22.517
   2.020        403.33	    22.000
   2.040        393.33	    21.726
   2.060        390.00	    21.633
   2.080        374.17	    21.190
   2.100        347.50	    20.421
   2.120        358.33	    20.736
   2.140        365.00	    20.928
   2.160        374.17	    21.190
   2.180        312.50	    19.365
   2.200        384.17	    21.471
   2.220        327.50	    19.824
   2.240        336.67	    20.100
   2.260        300.83	    19.000
   2.280        331.67	    19.950
   2.300        285.00	    18.493
   2.320        328.33	    19.849
   2.340        283.33	    18.439
   2.360        300.83	    19.000
   2.380        280.83	    18.358
   2.400        275.00	    18.166
   2.420        275.83	    18.193
   2.440        299.17	    18.947
   2.460        288.33	    18.601
   2.480        296.67	    18.868
   2.500        243.33	    17.088
   2.520        265.83	    17.861
   2.540        270.83	    18.028
   2.560        241.67	    17.029
   2.580        255.00	    17.493
   2.600        255.00	    17.493
   2.620        256.67	    17.550
   2.640        259.17	    17.635
   2.660        244.17	    17.117
   2.680        249.17	    17.292
   2.700        269.17	    17.972
   2.720        233.33	    16.733
   2.740        259.17	    17.635
   2.760        235.83	    16.823
   2.780        245.00	    17.146
   2.800        259.17	    17.635
   2.820        225.00	    16.432
   2.840        240.00	    16.971
   2.860        260.83	    17.692
   2.880        250.00	    17.321
   2.900        210.00	    15.875
   2.920        235.83	    16.823
   2.940        224.17	    16.401
   2.960        205.83	    15.716
   2.980        250.00	    17.321
   3.000        217.50	    16.155
   3.020        212.50	    15.969
   3.040        205.00	    15.684
   3.060        220.00	    16.248
   3.080        217.50	    16.155
   3.100        225.00	    16.432
   3.120        190.00	    15.100
   3.140        217.50	    16.155
   3.160        200.83	    15.524
   3.180        200.00	    15.492
   3.200        220.00	    16.248
   3.220        215.83	    16.093
   3.240        184.17	    14.866
   3.260        185.00	    14.900
   3.280        180.83	    14.731
   3.300        170.00	    14.283
   3.320        176.67	    14.560
   3.340        193.33	    15.232
   3.360        170.00	    14.283
   3.380        190.83	    15.133
   3.400        197.50	    15.395
   3.420        163.33	    14.000
   3.440        168.33	    14.213
   3.460        194.17	    15.264
   3.480        194.17	    15.264
   3.500        185.83	    14.933
   3.520        164.17	    14.036
   3.540        175.00	    14.491
   3.560        160.00	    13.856
   3.580        154.17	    13.601
   3.600        175.83	    14.526
   3.620        185.83	    14.933
   3.640        145.00	    13.191
   3.660        170.00	    14.283
   3.680        161.67	    13.928
   3.700        155.00	    13.638
   3.720        152.50	    13.528
   3.740        190.00	    15.100
   3.760        132.50	    12.610
   3.780        155.00	    13.638
   3.800        152.50	    13.528
   3.820        154.17	    13.601
   3.840        163.33	    14.000
   3.860        140.00	    12.961
   3.880        140.83	    13.000
   3.900        128.33	    12.410
   3.920        167.50	    14.177
   3.940        139.17	    12.923
   3.960        161.67	    13.928
   3.980        141.67	    13.038
   4.000        139.17	    12.923
   4.020        145.83	    13.229
   4.040        150.83	    13.454
   4.060        155.83	    13.675
   4.080        129.17	    12.450
   4.100        160.83	    13.892
   4.120        134.17	    12.689
   4.140        127.50	    12.369
   4.160        134.17	    12.689
   4.180        132.50	    12.610
   4.200        142.50	    13.077
   4.220        140.83	    13.000
   4.240        134.17	    12.689
   4.260        130.83	    12.530
   4.280        147.50	    13.304
   4.300        130.83	    12.530
   4.320        129.17	    12.450
   4.340        131.67	    12.570
   4.360        128.33	    12.410
   4.380        139.17	    12.923
   4.400        132.50	    12.610
   4.420        118.33	    11.916
   4.440        122.50	    12.124
   4.460        131.67	    12.570
   4.480        115.83	    11.790
   4.500        121.67	    12.083
   4.520        132.50	    12.610
   4.540        128.33	    12.410
   4.560        121.67	    12.083
   4.580        102.50	    11.091
   4.600        123.33	    12.166
   4.620        120.00	    12.000
   4.640        119.17	    11.958
   4.660        121.67	    12.083
   4.680        119.17	    11.958
   4.700        122.50	    12.124
   4.720        128.33	    12.410
   4.740        101.67	    11.045
   4.760        104.17	    11.180
   4.780        104.17	    11.180
   4.800        103.33	    11.136
   4.820        123.33	    12.166
   4.840        107.50	    11.358
   4.860        104.17	    11.180
   4.880        107.50	    11.358
   4.900        111.67	    11.576
   4.920        116.67	    11.832
   4.940         99.17	    10.909
   4.960        114.17	    11.705
   4.980         91.67	    10.488
   5.000        126.67	    12.329
   5.020        122.50	    12.124
   5.040        112.50	    11.619
   5.060        119.17	    11.958
   5.080        110.83	    11.533
   5.100         97.50	    10.817
   5.120         90.83	    10.440
   5.140         94.17	    10.630
   5.160        110.83	    11.533
   5.180        110.83	    11.533
   5.200        106.67	    11.314
   5.220        103.33	    11.136
   5.240        107.50	    11.358
   5.260        105.83	    11.269
   5.280        110.00	    11.489
   5.300         85.83	    10.149
   5.320        101.67	    11.045
   5.340         86.67	    10.198
   5.360        114.17	    11.705
   5.380         98.33	    10.863
   5.400         99.17	    10.909
   5.420        114.17	    11.705
   5.440         93.33	    10.583
   5.460        101.67	    11.045
   5.480        105.00	    11.225
   5.500         90.00	    10.392
   5.520        106.67	    11.314
   5.540        101.67	    11.045
   5.560         92.50	    10.536
   5.580         98.33	    10.863
   5.600         97.50	    10.817
   5.620         90.00	    10.392
   5.640         96.67	    10.770
   5.660         90.00	    10.392
   5.680        101.67	    11.045
   5.700        102.50	    11.091
   5.720         90.00	    10.392
   5.740        101.67	    11.045
   5.760        108.33	    11.402
   5.780         80.00	     9.798
   5.800         85.83	    10.149
   5.820         95.00	    10.677
   5.840         93.33	    10.583
   5.860         98.33	    10.863
   5.880        102.50	    11.091
   5.900         85.83	    10.149
   5.920         93.33	    10.583
   5.940         99.17	    10.909
   5.960         92.50	    10.536
   5.980        107.50	    11.358
   6.000        113.33	    11.662
   6.020        120.00	    12.000
   6.040        103.33	    11.136
   6.060        103.33	    11.136
   6.080         97.50	    10.817
   6.100         95.83	    10.724
   6.120        127.50	    12.369
   6.140        101.67	    11.045
   6.160        106.67	    11.314
   6.180        112.50	    11.619
   6.200        120.83	    12.042
   6.220        135.00	    12.728
   6.240        134.17	    12.689
   6.260        136.67	    12.806
   6.280        145.83	    13.229
   6.300        152.50	    13.528
   6.320        170.00	    14.283
   6.340        151.67	    13.491
   6.360        181.67	    14.765
   6.380        153.33	    13.565
   6.400        146.67	    13.266
   6.420        135.83	    12.767
   6.440        114.17	    11.705
   6.460        120.83	    12.042
   6.480        120.83	    12.042
   6.500        126.67	    12.329
   6.520        115.00	    11.747
   6.540        103.33	    11.136
   6.560        108.33	    11.402
   6.580        102.50	    11.091
   6.600         87.50	    10.247
   6.620        102.50	    11.091
   6.640         97.50	    10.817
   6.660         96.67	    10.770
   6.680         96.67	    10.770
   6.700         89.17	    10.344
   6.720         80.83	     9.849
   6.740         80.83	     9.849
   6.760         83.33	    10.000
   6.780         82.50	     9.950
   6.800         86.67	    10.198
   6.820         84.17	    10.050
   6.840         85.83	    10.149
   6.860         77.50	     9.644
   6.880         85.83	    10.149
   6.900         99.17	    10.909
   6.920        105.00	    11.225
   6.940         78.33	     9.695
   6.960         88.33	    10.296
   6.980         87.50	    10.247
   7.000         90.00	    10.392
   7.020         81.67	     9.899
   7.040         90.83	    10.440
   7.060         97.50	    10.817
   7.080         98.33	    10.863
   7.100         85.83	    10.149
   7.120         77.50	     9.644
   7.140         92.50	    10.536
   7.160         89.17	    10.344
   7.180         79.17	     9.747
   7.200         82.50	     9.950
   7.220         95.00	    10.677
   7.240         91.67	    10.488
   7.260         85.00	    10.100
   7.280         78.33	     9.695
   7.300         91.67	    10.488
   7.320         89.17	    10.344
   7.340         80.83	     9.849
   7.360         84.17	    10.050
   7.380         79.17	     9.747
   7.400         82.50	     9.950
   7.420         68.33	     9.055
   7.440         75.83	     9.539
   7.460         69.17	     9.110
   7.480         89.17	    10.344
   7.500         90.00	    10.392
   7.520         77.50	     9.644
   7.540         80.00	     9.798
   7.560         97.50	    10.817
   7.580         93.33	    10.583
   7.600         86.67	    10.198
   7.620         69.17	     9.110
   7.640         84.17	    10.050
   7.660         60.83	     8.544
   7.680         79.17	     9.747
   7.700         93.33	    10.583
   7.720         75.83	     9.539
   7.740         65.83	     8.888
   7.760         87.50	    10.247
   7.780         77.50	     9.644
   7.800         72.50	     9.327
   7.820         80.83	     9.849
   7.840         80.83	     9.849
   7.860         67.50	     9.000
   7.880         74.17	     9.434
   7.900         63.33	     8.718
   7.920         83.33	    10.000
   7.940         65.83	     8.888
   7.960         70.83	     9.220
   7.980         77.50	     9.644
   8.000         70.00	     9.165
   8.020         67.50	     9.000
   8.040         75.00	     9.487
   8.060         76.67	     9.592
   8.080         71.67	     9.274
   8.100         90.83	    10.440
   8.120         75.00	     9.487
   8.140         75.83	     9.539
   8.160         80.83	     9.849
   8.180         93.33	    10.583
   8.200         74.17	     9.434
   8.220         77.50	     9.644
   8.240         69.17	     9.110
   8.260         80.83	     9.849
   8.280         78.33	     9.695
   8.300         64.17	     8.775
   8.320         70.83	     9.220
   8.340         65.83	     8.888
   8.360         77.50	     9.644
   8.380         88.33	    10.296
   8.400         75.00	     9.487
   8.420         75.83	     9.539
   8.440         76.67	     9.592
   8.460         72.50	     9.327
   8.480         68.33	     9.055
   8.500         76.67	     9.592
   8.520         62.50	     8.660
   8.540         82.50	     9.950
   8.560         89.17	    10.344
   8.580         93.33	    10.583
   8.600         92.50	    10.536
   8.620         85.83	    10.149
   8.640        112.50	    11.619
   8.660        104.17	    11.180
   8.680        103.33	    11.136
   8.700        101.67	    11.045
   8.720        115.83	    11.790
   8.740        110.00	    11.489
   8.760        138.33	    12.884
   8.780        121.67	    12.083
   8.800        139.17	    12.923
   8.820        155.00	    13.638
   8.840        160.00	    13.856
   8.860        199.17	    15.460
   8.880        267.50	    17.916
   8.900        258.33	    17.607
   8.920        289.17	    18.628
   8.940        325.00	    19.748
   8.960        435.00	    22.847
   8.980        568.33	    26.115
   9.000        733.33	    29.665
   9.020        969.17	    34.103
   9.040        955.00	    33.853
   9.060        633.33	    27.568
   9.080        310.00	    19.287
   9.100        185.83	    14.933
   9.120        111.67	    11.576
   9.140        115.00	    11.747
   9.160         88.33	    10.296
   9.180         88.33	    10.296
   9.200         78.33	     9.695
   9.220         90.00	    10.392
   9.240         70.00	     9.165
   9.260         91.67	    10.488
   9.280         97.50	    10.817
   9.300         98.33	    10.863
   9.320         80.00	     9.798
   9.340         70.00	     9.165
   9.360         75.00	     9.487
   9.380         65.00	     8.832
   9.400         64.17	     8.775
   9.420         62.50	     8.660
   9.440         76.67	     9.592
   9.460         55.00	     8.124
   9.480         52.50	     7.937
   9.500         69.17	     9.110
   9.520         65.00	     8.832
   9.540         85.00	    10.100
   9.560         98.33	    10.863
   9.580         85.00	    10.100
   9.600         85.83	    10.149
   9.620         73.33	     9.381
   9.640         72.50	     9.327
   9.660         58.33	     8.367
   9.680         60.83	     8.544
   9.700         53.33	     8.000
   9.720         60.00	     8.485
   9.740         66.67	     8.944
   9.760         65.83	     8.888
   9.780         54.17	     8.062
   9.800         50.00	     7.746
   9.820         63.33	     8.718
   9.840         59.17	     8.426
   9.860         62.50	     8.660
   9.880         65.83	     8.888
   9.900         61.67	     8.602
   9.920         68.33	     9.055
   9.940         56.67	     8.246
   9.960         55.83	     8.185
   9.980         49.17	     7.681
  10.000         50.00	     7.746
  10.020         51.67	     7.874
  10.040         49.17	     7.681
  10.060         53.33	     8.000
  10.080         64.17	     8.775
  10.100         59.17	     8.426
  10.120         45.83	     7.416
  10.140         58.33	     8.367
  10.160         48.33	     7.616
  10.180         45.83	     7.416
  10.200         47.50	     7.550
  10.220         43.33	     7.211
  10.240         40.00	     6.928
  10.260         44.17	     7.280
  10.280         41.67	     7.071
  10.300         58.33	     8.367
  10.320         70.83	     9.220
  10.340         56.67	     8.246
  10.360         46.67	     7.483
  10.380         46.67	     7.483
  10.400         44.17	     7.280
  10.420         44.17	     7.280
  10.440         64.17	     8.775
  10.460         55.83	     8.185
  10.480         57.50	     8.307
  10.500         38.33	     6.782
  10.520         50.83	     7.810
  10.540         47.50	     7.550
  10.560         53.33	     8.000
  10.580         77.50	     9.644
  10.600         82.50	     9.950
  10.620         67.50	     9.000
  10.640         82.50	     9.950
  10.660        125.83	    12.288
  10.680        140.83	    13.000
  10.700        109.17	    11.446
  10.720         70.83	     9.220
  10.740         67.50	     9.000
  10.760         55.83	     8.185
  10.780         48.33	     7.616
  10.800         59.17	     8.426
  10.820         44.17	     7.280
  10.840         50.00	     7.746
  10.860         55.00	     8.124
  10.880         48.33	     7.616
  10.900         47.50	     7.550
  10.920         51.67	     7.874
  10.940         55.00	     8.124
  10.960         49.17	     7.681
  10.980         45.00	     7.348
  11.000         43.33	     7.211
  11.020         34.17	     6.403
  11.040         39.17	     6.856
  11.060         50.00	     7.746
  11.080         36.67	     6.633
  11.100         45.00	     7.348
  11.120         55.00	     8.124
  11.140         49.17	     7.681
  11.160         52.50	     7.937
  11.180         52.50	     7.937
  11.200         42.50	     7.141
  11.220         45.00	     7.348
  11.240         44.17	     7.280
  11.260         50.83	     7.810
  11.280         41.67	     7.071
  11.300         53.33	     8.000
  11.320         39.17	     6.856
  11.340         46.67	     7.483
  11.360         45.00	     7.348
  11.380         45.83	     7.416
  11.400         60.00	     8.485
  11.420         40.00	     6.928
  11.440         41.67	     7.071
  11.460         45.00	     7.348
  11.480         43.33	     7.211
  11.500         38.33	     6.782
  11.520         46.67	     7.483
  11.540         40.83	     7.000
  11.560         45.83	     7.416
  11.580         44.17	     7.280
  11.600         52.50	     7.937
  11.620         40.00	     6.928
  11.640         54.17	     8.062
  11.660         46.67	     7.483
  11.680         50.00	     7.746
  11.700         46.67	     7.483
  11.720         53.33	     8.000
  11.740         49.17	     7.681
  11.760         35.83	     6.557
  11.780         40.83	     7.000
  11.800         50.83	     7.810
  11.820         55.00	     8.124
  11.840         48.33	     7.616
  11.860         66.67	     8.944
  11.880         44.17	     7.280
  11.900         54.17	     8.062
  11.920         47.50	     7.550
  11.940         50.00	     7.746
  11.960         50.00	     7.746
  11.980         50.00	     7.746
  12.000         52.50	     7.937
  12.020         55.83	     8.185
  12.040         50.00	     7.746
  12.060         61.67	     8.602
  12.080         61.67	     8.602
  12.100         65.00	     8.832
  12.120         62.50	     8.660
  12.140         87.50	    10.247
  12.160         71.67	     9.274
  12.180         99.17	    10.909
  12.200        101.67	    11.045
  12.220        133.33	    12.649
  12.240        153.33	    13.565
  12.260        215.83	    16.093
  12.280        397.50	    21.840
  12.300        655.83	    28.054
  12.320        860.83	    32.140
  12.340        809.17	    31.161
  12.360        610.83	    27.074
  12.380        385.83	    21.517
