
Filename:
	C:\Program Files\Thermo Electron\WinXRD\Datafiles\F_HERMAN\FIEN\23_1_AUG_P_RT.raw

File Created:
	January 24, 2019 - 03:04 PM

Specimen Id:
	23.2 AUG P FT

Specimen Name:
	

Specimen Description:
	

Comment:
Scan Type: 2Theta Scan
Start Angle: 1 deg.
Stop Angle: 65 deg.
Num Points: 3201
Step Size: 0.02 deg.
Scan Rate: 1.000000
Scan Mode: Continuous
Wavelength: 1.540562
\Kalpha1: 1.540562	\Kalpha2: 1.544390	\Kbeta: 1.392218

Optics:
		Detector:
			 Type: Fixed Slits
		Tube: 
			 Type: Fixed Slits


Datas:
 Pos [deg]       Rate [CPS]      ESD [-]

Range 1 ---> Iteration 1
   1.000       1010.83	    34.828
   1.020        770.00	    30.397
   1.040        685.00	    28.671
   1.060        515.83	    24.880
   1.080        477.50	    23.937
   1.100        479.17	    23.979
   1.120        478.33	    23.958
   1.140        443.33	    23.065
   1.160        400.00	    21.909
   1.180        436.67	    22.891
   1.200        385.00	    21.494
   1.220        469.17	    23.728
   1.240        385.00	    21.494
   1.260        471.67	    23.791
   1.280        494.17	    24.352
   1.300        595.83	    26.739
   1.320        721.67	    29.428
   1.340        956.67	    33.882
   1.360       1077.50	    35.958
   1.380       1342.50	    40.137
   1.400       1306.67	    39.598
   1.420       1260.83	    38.897
   1.440       1320.00	    39.799
   1.460       1290.83	    39.357
   1.480       1295.00	    39.421
   1.500       1259.17	    38.872
   1.520       1178.33	    37.603
   1.540       1165.83	    37.403
   1.560       1161.67	    37.336
   1.580       1142.50	    37.027
   1.600       1165.00	    37.390
   1.620        969.17	    34.103
   1.640       1026.67	    35.100
   1.660        915.00	    33.136
   1.680        875.00	    32.404
   1.700        745.83	    29.917
   1.720        720.00	    29.394
   1.740        729.17	    29.580
   1.760        638.33	    27.677
   1.780        656.67	    28.071
   1.800        589.17	    26.589
   1.820        575.00	    26.268
   1.840        568.33	    26.115
   1.860        539.17	    25.436
   1.880        511.67	    24.779
   1.900        490.83	    24.269
   1.920        499.17	    24.474
   1.940        539.17	    25.436
   1.960        463.33	    23.580
   1.980        470.00	    23.749
   2.000        440.00	    22.978
   2.020        485.83	    24.145
   2.040        447.50	    23.173
   2.060        438.33	    22.935
   2.080        440.00	    22.978
   2.100        443.33	    23.065
   2.120        410.00	    22.181
   2.140        423.33	    22.539
   2.160        417.50	    22.383
   2.180        421.67	    22.494
   2.200        397.50	    21.840
   2.220        398.33	    21.863
   2.240        414.17	    22.293
   2.260        375.00	    21.213
   2.280        392.50	    21.703
   2.300        386.67	    21.541
   2.320        352.50	    20.567
   2.340        330.83	    19.925
   2.360        359.17	    20.761
   2.380        370.00	    21.071
   2.400        366.67	    20.976
   2.420        349.17	    20.469
   2.440        374.17	    21.190
   2.460        358.33	    20.736
   2.480        337.50	    20.125
   2.500        335.00	    20.050
   2.520        352.50	    20.567
   2.540        297.50	    18.894
   2.560        310.00	    19.287
   2.580        329.17	    19.875
   2.600        362.50	    20.857
   2.620        323.33	    19.698
   2.640        325.83	    19.774
   2.660        323.33	    19.698
   2.680        315.00	    19.442
   2.700        307.50	    19.209
   2.720        293.33	    18.762
   2.740        295.83	    18.841
   2.760        300.83	    19.000
   2.780        283.33	    18.439
   2.800        293.33	    18.762
   2.820        279.17	    18.303
   2.840        295.00	    18.815
   2.860        280.83	    18.358
   2.880        274.17	    18.138
   2.900        277.50	    18.248
   2.920        287.50	    18.574
   2.940        288.33	    18.601
   2.960        303.33	    19.079
   2.980        251.67	    17.378
   3.000        277.50	    18.248
   3.020        241.67	    17.029
   3.040        260.83	    17.692
   3.060        265.00	    17.833
   3.080        260.00	    17.664
   3.100        254.17	    17.464
   3.120        257.50	    17.578
   3.140        263.33	    17.776
   3.160        245.83	    17.176
   3.180        247.50	    17.234
   3.200        233.33	    16.733
   3.220        262.50	    17.748
   3.240        240.00	    16.971
   3.260        224.17	    16.401
   3.280        246.67	    17.205
   3.300        265.00	    17.833
   3.320        231.67	    16.673
   3.340        223.33	    16.371
   3.360        224.17	    16.401
   3.380        240.83	    17.000
   3.400        234.17	    16.763
   3.420        230.83	    16.643
   3.440        249.17	    17.292
   3.460        233.33	    16.733
   3.480        224.17	    16.401
   3.500        228.33	    16.553
   3.520        223.33	    16.371
   3.540        230.00	    16.613
   3.560        227.50	    16.523
   3.580        222.50	    16.340
   3.600        197.50	    15.395
   3.620        220.83	    16.279
   3.640        220.83	    16.279
   3.660        199.17	    15.460
   3.680        208.33	    15.811
   3.700        225.83	    16.462
   3.720        215.00	    16.062
   3.740        211.67	    15.937
   3.760        207.50	    15.780
   3.780        217.50	    16.155
   3.800        200.83	    15.524
   3.820        195.00	    15.297
   3.840        206.67	    15.748
   3.860        200.83	    15.524
   3.880        205.00	    15.684
   3.900        161.67	    13.928
   3.920        210.00	    15.875
   3.940        205.00	    15.684
   3.960        187.50	    15.000
   3.980        185.00	    14.900
   4.000        190.00	    15.100
   4.020        213.33	    16.000
   4.040        205.83	    15.716
   4.060        198.33	    15.427
   4.080        180.83	    14.731
   4.100        184.17	    14.866
   4.120        165.83	    14.107
   4.140        190.00	    15.100
   4.160        176.67	    14.560
   4.180        182.50	    14.799
   4.200        191.67	    15.166
   4.220        160.00	    13.856
   4.240        157.50	    13.748
   4.260        178.33	    14.629
   4.280        169.17	    14.248
   4.300        180.00	    14.697
   4.320        178.33	    14.629
   4.340        177.50	    14.595
   4.360        165.00	    14.071
   4.380        183.33	    14.832
   4.400        159.17	    13.820
   4.420        192.50	    15.199
   4.440        166.67	    14.142
   4.460        161.67	    13.928
   4.480        173.33	    14.422
   4.500        165.83	    14.107
   4.520        175.00	    14.491
   4.540        150.83	    13.454
   4.560        158.33	    13.784
   4.580        166.67	    14.142
   4.600        158.33	    13.784
   4.620        158.33	    13.784
   4.640        163.33	    14.000
   4.660        169.17	    14.248
   4.680        164.17	    14.036
   4.700        178.33	    14.629
   4.720        161.67	    13.928
   4.740        145.00	    13.191
   4.760        137.50	    12.845
   4.780        161.67	    13.928
   4.800        152.50	    13.528
   4.820        173.33	    14.422
   4.840        178.33	    14.629
   4.860        156.67	    13.711
   4.880        155.83	    13.675
   4.900        150.83	    13.454
   4.920        158.33	    13.784
   4.940        149.17	    13.379
   4.960        168.33	    14.213
   4.980        150.00	    13.416
   5.000        139.17	    12.923
   5.020        138.33	    12.884
   5.040        148.33	    13.342
   5.060        134.17	    12.689
   5.080        150.83	    13.454
   5.100        144.17	    13.153
   5.120        150.83	    13.454
   5.140        152.50	    13.528
   5.160        155.83	    13.675
   5.180        157.50	    13.748
   5.200        142.50	    13.077
   5.220        156.67	    13.711
   5.240        155.83	    13.675
   5.260        127.50	    12.369
   5.280        126.67	    12.329
   5.300        130.00	    12.490
   5.320        138.33	    12.884
   5.340        118.33	    11.916
   5.360        132.50	    12.610
   5.380        131.67	    12.570
   5.400        125.83	    12.288
   5.420        121.67	    12.083
   5.440        136.67	    12.806
   5.460        140.00	    12.961
   5.480        128.33	    12.410
   5.500        150.83	    13.454
   5.520        126.67	    12.329
   5.540        130.83	    12.530
   5.560        140.00	    12.961
   5.580        138.33	    12.884
   5.600        144.17	    13.153
   5.620        147.50	    13.304
   5.640        122.50	    12.124
   5.660        159.17	    13.820
   5.680        130.00	    12.490
   5.700        128.33	    12.410
   5.720        135.83	    12.767
   5.740        123.33	    12.166
   5.760        133.33	    12.649
   5.780        127.50	    12.369
   5.800        142.50	    13.077
   5.820        140.00	    12.961
   5.840        121.67	    12.083
   5.860        152.50	    13.528
   5.880        141.67	    13.038
   5.900        134.17	    12.689
   5.920        144.17	    13.153
   5.940        165.00	    14.071
   5.960        145.00	    13.191
   5.980        135.00	    12.728
   6.000        160.00	    13.856
   6.020        146.67	    13.266
   6.040        161.67	    13.928
   6.060        208.33	    15.811
   6.080        185.83	    14.933
   6.100        195.00	    15.297
   6.120        205.83	    15.716
   6.140        225.83	    16.462
   6.160        256.67	    17.550
   6.180        248.33	    17.263
   6.200        236.67	    16.852
   6.220        222.50	    16.340
   6.240        200.83	    15.524
   6.260        156.67	    13.711
   6.280        132.50	    12.610
   6.300        155.83	    13.675
   6.320        132.50	    12.610
   6.340        134.17	    12.689
   6.360        119.17	    11.958
   6.380        139.17	    12.923
   6.400        135.83	    12.767
   6.420        146.67	    13.266
   6.440        135.83	    12.767
   6.460        111.67	    11.576
   6.480        123.33	    12.166
   6.500        110.00	    11.489
   6.520         90.83	    10.440
   6.540        124.17	    12.207
   6.560        115.83	    11.790
   6.580        136.67	    12.806
   6.600        110.00	    11.489
   6.620        126.67	    12.329
   6.640        129.17	    12.450
   6.660        125.00	    12.247
   6.680        110.83	    11.533
   6.700        115.00	    11.747
   6.720         99.17	    10.909
   6.740        143.33	    13.115
   6.760        126.67	    12.329
   6.780         99.17	    10.909
   6.800        105.83	    11.269
   6.820        135.00	    12.728
   6.840        107.50	    11.358
   6.860        113.33	    11.662
   6.880        115.00	    11.747
   6.900        112.50	    11.619
   6.920        102.50	    11.091
   6.940        100.00	    10.954
   6.960        110.00	    11.489
   6.980        114.17	    11.705
   7.000        111.67	    11.576
   7.020        101.67	    11.045
   7.040        101.67	    11.045
   7.060        102.50	    11.091
   7.080        104.17	    11.180
   7.100        124.17	    12.207
   7.120        108.33	    11.402
   7.140         93.33	    10.583
   7.160        110.00	    11.489
   7.180        100.83	    11.000
   7.200         95.83	    10.724
   7.220         96.67	    10.770
   7.240        129.17	    12.450
   7.260         89.17	    10.344
   7.280        100.00	    10.954
   7.300        122.50	    12.124
   7.320         96.67	    10.770
   7.340         93.33	    10.583
   7.360        112.50	    11.619
   7.380        101.67	    11.045
   7.400         99.17	    10.909
   7.420         95.83	    10.724
   7.440         99.17	    10.909
   7.460        107.50	    11.358
   7.480        107.50	    11.358
   7.500        116.67	    11.832
   7.520         84.17	    10.050
   7.540         90.83	    10.440
   7.560        100.00	    10.954
   7.580         95.83	    10.724
   7.600         99.17	    10.909
   7.620        106.67	    11.314
   7.640        105.00	    11.225
   7.660         79.17	     9.747
   7.680         97.50	    10.817
   7.700        102.50	    11.091
   7.720         88.33	    10.296
   7.740         95.00	    10.677
   7.760         95.83	    10.724
   7.780         88.33	    10.296
   7.800         99.17	    10.909
   7.820        106.67	    11.314
   7.840         79.17	     9.747
   7.860         89.17	    10.344
   7.880        105.83	    11.269
   7.900         90.00	    10.392
   7.920        103.33	    11.136
   7.940        103.33	    11.136
   7.960        103.33	    11.136
   7.980         85.83	    10.149
   8.000        104.17	    11.180
   8.020        107.50	    11.358
   8.040        104.17	    11.180
   8.060         78.33	     9.695
   8.080        100.00	    10.954
   8.100        100.83	    11.000
   8.120        101.67	    11.045
   8.140         91.67	    10.488
   8.160         78.33	     9.695
   8.180         90.83	    10.440
   8.200        105.00	    11.225
   8.220         99.17	    10.909
   8.240        102.50	    11.091
   8.260        102.50	    11.091
   8.280         90.00	    10.392
   8.300         86.67	    10.198
   8.320         92.50	    10.536
   8.340        109.17	    11.446
   8.360         95.00	    10.677
   8.380         98.33	    10.863
   8.400        103.33	    11.136
   8.420         94.17	    10.630
   8.440         91.67	    10.488
   8.460         95.83	    10.724
   8.480        105.00	    11.225
   8.500        102.50	    11.091
   8.520        106.67	    11.314
   8.540        102.50	    11.091
   8.560        106.67	    11.314
   8.580        125.83	    12.288
   8.600        124.17	    12.207
   8.620        127.50	    12.369
   8.640        125.00	    12.247
   8.660        129.17	    12.450
   8.680        166.67	    14.142
   8.700        165.83	    14.107
   8.720        183.33	    14.832
   8.740        185.00	    14.900
   8.760        237.50	    16.882
   8.780        278.33	    18.276
   8.800        371.67	    21.119
   8.820        500.00	    24.495
   8.840        461.67	    23.537
   8.860        392.50	    21.703
   8.880        280.83	    18.358
   8.900        165.00	    14.071
   8.920        129.17	    12.450
   8.940         97.50	    10.817
   8.960         88.33	    10.296
   8.980        100.83	    11.000
   9.000         91.67	    10.488
   9.020         85.00	    10.100
   9.040        110.83	    11.533
   9.060        109.17	    11.446
   9.080        105.00	    11.225
   9.100        117.50	    11.874
   9.120        155.83	    13.675
   9.140        160.00	    13.856
   9.160        145.00	    13.191
   9.180        107.50	    11.358
   9.200        106.67	    11.314
   9.220         80.00	     9.798
   9.240         92.50	    10.536
   9.260         69.17	     9.110
   9.280        105.00	    11.225
   9.300         88.33	    10.296
   9.320         89.17	    10.344
   9.340         99.17	    10.909
   9.360         77.50	     9.644
   9.380         97.50	    10.817
   9.400        101.67	    11.045
   9.420         99.17	    10.909
   9.440         82.50	     9.950
   9.460         87.50	    10.247
   9.480         75.83	     9.539
   9.500         75.83	     9.539
   9.520         86.67	    10.198
   9.540         78.33	     9.695
   9.560         83.33	    10.000
   9.580         88.33	    10.296
   9.600         81.67	     9.899
   9.620         83.33	    10.000
   9.640         90.83	    10.440
   9.660         89.17	    10.344
   9.680         91.67	    10.488
   9.700         86.67	    10.198
   9.720         80.83	     9.849
   9.740         74.17	     9.434
   9.760         71.67	     9.274
   9.780         88.33	    10.296
   9.800         74.17	     9.434
   9.820         78.33	     9.695
   9.840         65.83	     8.888
   9.860         71.67	     9.274
   9.880         95.83	    10.724
   9.900         79.17	     9.747
   9.920         74.17	     9.434
   9.940         78.33	     9.695
   9.960         87.50	    10.247
   9.980         64.17	     8.775
  10.000         71.67	     9.274
  10.020         74.17	     9.434
  10.040         76.67	     9.592
  10.060         85.83	    10.149
  10.080         80.83	     9.849
  10.100         77.50	     9.644
  10.120         72.50	     9.327
  10.140         63.33	     8.718
  10.160         80.83	     9.849
  10.180         83.33	    10.000
  10.200         70.83	     9.220
  10.220         78.33	     9.695
  10.240         79.17	     9.747
  10.260         59.17	     8.426
  10.280         78.33	     9.695
  10.300         61.67	     8.602
  10.320         68.33	     9.055
  10.340         85.83	    10.149
  10.360         83.33	    10.000
  10.380         92.50	    10.536
  10.400         81.67	     9.899
  10.420        105.00	    11.225
  10.440        119.17	    11.958
  10.460         92.50	    10.536
  10.480        102.50	    11.091
  10.500         99.17	    10.909
  10.520        103.33	    11.136
  10.540         88.33	    10.296
  10.560         82.50	     9.950
  10.580         65.83	     8.888
  10.600         71.67	     9.274
  10.620         70.00	     9.165
  10.640         71.67	     9.274
  10.660         71.67	     9.274
  10.680         71.67	     9.274
  10.700         71.67	     9.274
  10.720         73.33	     9.381
  10.740         68.33	     9.055
  10.760         64.17	     8.775
  10.780         75.83	     9.539
  10.800         82.50	     9.950
  10.820         67.50	     9.000
  10.840         66.67	     8.944
  10.860         65.00	     8.832
  10.880         71.67	     9.274
  10.900         80.00	     9.798
  10.920         71.67	     9.274
  10.940         76.67	     9.592
  10.960         73.33	     9.381
  10.980         70.00	     9.165
  11.000         66.67	     8.944
  11.020         75.83	     9.539
  11.040         70.00	     9.165
  11.060         66.67	     8.944
  11.080         65.83	     8.888
  11.100         74.17	     9.434
  11.120         66.67	     8.944
  11.140         70.00	     9.165
  11.160         65.83	     8.888
  11.180         65.00	     8.832
  11.200         75.83	     9.539
  11.220         83.33	    10.000
  11.240         66.67	     8.944
  11.260         68.33	     9.055
  11.280         64.17	     8.775
  11.300         68.33	     9.055
  11.320         70.83	     9.220
  11.340         65.83	     8.888
  11.360         70.00	     9.165
  11.380         73.33	     9.381
  11.400         67.50	     9.000
  11.420         65.00	     8.832
  11.440         62.50	     8.660
  11.460         80.00	     9.798
  11.480         66.67	     8.944
  11.500         70.00	     9.165
  11.520         70.83	     9.220
  11.540         68.33	     9.055
  11.560         75.00	     9.487
  11.580         72.50	     9.327
  11.600         71.67	     9.274
  11.620         86.67	    10.198
  11.640         66.67	     8.944
  11.660         76.67	     9.592
  11.680         64.17	     8.775
  11.700         62.50	     8.660
  11.720         65.00	     8.832
  11.740         77.50	     9.644
  11.760         74.17	     9.434
  11.780         67.50	     9.000
  11.800         68.33	     9.055
  11.820         75.83	     9.539
  11.840         63.33	     8.718
  11.860         84.17	    10.050
  11.880         79.17	     9.747
  11.900         78.33	     9.695
  11.920         72.50	     9.327
  11.940         86.67	    10.198
  11.960         77.50	     9.644
  11.980         96.67	    10.770
  12.000         85.83	    10.149
  12.020         77.50	     9.644
  12.040        102.50	    11.091
  12.060        115.83	    11.790
  12.080        159.17	    13.820
  12.100        221.67	    16.310
  12.120        243.33	    17.088
  12.140        264.17	    17.804
  12.160        210.00	    15.875
  12.180        170.83	    14.318
  12.200        115.00	    11.747
  12.220        110.00	    11.489
  12.240        140.00	    12.961
  12.260        127.50	    12.369
  12.280        183.33	    14.832
  12.300        135.83	    12.767
  12.320        157.50	    13.748
  12.340        136.67	    12.806
  12.360        143.33	    13.115
  12.380        155.83	    13.675
