
Filename:
	C:\Program Files\Thermo Electron\WinXRD\Datafiles\F_HERMAN\FIEN\28_7_11_26_1 FILTER.raw

File Created:
	February 21, 2019 - 03:50 PM

Specimen Id:
	28.7  11.26/1 FT

Specimen Name:
	

Specimen Description:
	

Comment:
Scan Type: 2Theta Scan
Start Angle: 1 deg.
Stop Angle: 65 deg.
Num Points: 3201
Step Size: 0.02 deg.
Scan Rate: 1.000000
Scan Mode: Continuous
Wavelength: 1.540562
\Kalpha1: 1.540562	\Kalpha2: 1.544390	\Kbeta: 1.392218

Optics:
		Detector:
			 Type: Fixed Slits
		Tube: 
			 Type: Fixed Slits


Datas:
 Pos [deg]       Rate [CPS]      ESD [-]

Range 1 ---> Iteration 1
   1.000       1075.00	    35.917
   1.020        734.17	    29.682
   1.040        735.83	    29.715
   1.060        571.67	    26.192
   1.080        485.83	    24.145
   1.100        517.50	    24.920
   1.120        466.67	    23.664
   1.140        455.00	    23.367
   1.160        465.00	    23.622
   1.180        345.00	    20.347
   1.200        429.17	    22.694
   1.220        387.50	    21.564
   1.240        408.33	    22.136
   1.260        380.00	    21.354
   1.280        466.67	    23.664
   1.300        538.33	    25.417
   1.320        564.17	    26.019
   1.340        760.00	    30.199
   1.360        981.67	    34.322
   1.380       1265.83	    38.974
   1.400       1278.33	    39.166
   1.420       1238.33	    38.549
   1.440       1287.50	    39.306
   1.460       1229.17	    38.406
   1.480       1193.33	    37.842
   1.500       1100.00	    36.332
   1.520       1148.33	    37.121
   1.540       1126.67	    36.770
   1.560        992.50	    34.511
   1.580       1017.50	    34.943
   1.600        953.33	    33.823
   1.620        903.33	    32.924
   1.640        845.00	    31.843
   1.660        815.83	    31.289
   1.680        749.17	    29.983
   1.700        779.17	    30.578
   1.720        692.50	    28.827
   1.740        640.83	    27.731
   1.760        600.00	    26.833
   1.780        617.50	    27.221
   1.800        550.00	    25.690
   1.820        481.67	    24.042
   1.840        492.50	    24.310
   1.860        475.00	    23.875
   1.880        496.67	    24.413
   1.900        475.00	    23.875
   1.920        450.00	    23.238
   1.940        467.50	    23.685
   1.960        412.50	    22.249
   1.980        425.83	    22.605
   2.000        415.00	    22.316
   2.020        380.83	    21.378
   2.040        396.67	    21.817
   2.060        433.33	    22.804
   2.080        403.33	    22.000
   2.100        335.00	    20.050
   2.120        368.33	    21.024
   2.140        385.83	    21.517
   2.160        365.83	    20.952
   2.180        311.67	    19.339
   2.200        367.50	    21.000
   2.220        316.67	    19.494
   2.240        341.67	    20.248
   2.260        293.33	    18.762
   2.280        329.17	    19.875
   2.300        329.17	    19.875
   2.320        322.50	    19.672
   2.340        277.50	    18.248
   2.360        335.83	    20.075
   2.380        314.17	    19.416
   2.400        287.50	    18.574
   2.420        306.67	    19.183
   2.440        325.00	    19.748
   2.460        303.33	    19.079
   2.480        274.17	    18.138
   2.500        289.17	    18.628
   2.520        298.33	    18.921
   2.540        287.50	    18.574
   2.560        285.83	    18.520
   2.580        274.17	    18.138
   2.600        293.33	    18.762
   2.620        270.83	    18.028
   2.640        268.33	    17.944
   2.660        275.00	    18.166
   2.680        258.33	    17.607
   2.700        262.50	    17.748
   2.720        258.33	    17.607
   2.740        290.00	    18.655
   2.760        270.00	    18.000
   2.780        286.67	    18.547
   2.800        247.50	    17.234
   2.820        225.83	    16.462
   2.840        253.33	    17.436
   2.860        238.33	    16.912
   2.880        258.33	    17.607
   2.900        249.17	    17.292
   2.920        269.17	    17.972
   2.940        230.83	    16.643
   2.960        255.83	    17.521
   2.980        224.17	    16.401
   3.000        245.00	    17.146
   3.020        245.00	    17.146
   3.040        214.17	    16.031
   3.060        214.17	    16.031
   3.080        235.83	    16.823
   3.100        227.50	    16.523
   3.120        206.67	    15.748
   3.140        207.50	    15.780
   3.160        195.83	    15.330
   3.180        227.50	    16.523
   3.200        210.00	    15.875
   3.220        205.00	    15.684
   3.240        225.00	    16.432
   3.260        208.33	    15.811
   3.280        211.67	    15.937
   3.300        201.67	    15.556
   3.320        199.17	    15.460
   3.340        209.17	    15.843
   3.360        192.50	    15.199
   3.380        193.33	    15.232
   3.400        198.33	    15.427
   3.420        201.67	    15.556
   3.440        195.00	    15.297
   3.460        211.67	    15.937
   3.480        180.00	    14.697
   3.500        212.50	    15.969
   3.520        192.50	    15.199
   3.540        180.00	    14.697
   3.560        184.17	    14.866
   3.580        186.67	    14.967
   3.600        182.50	    14.799
   3.620        183.33	    14.832
   3.640        172.50	    14.387
   3.660        181.67	    14.765
   3.680        190.83	    15.133
   3.700        179.17	    14.663
   3.720        181.67	    14.765
   3.740        185.83	    14.933
   3.760        172.50	    14.387
   3.780        164.17	    14.036
   3.800        160.00	    13.856
   3.820        155.00	    13.638
   3.840        180.00	    14.697
   3.860        202.50	    15.588
   3.880        170.00	    14.283
   3.900        182.50	    14.799
   3.920        149.17	    13.379
   3.940        167.50	    14.177
   3.960        177.50	    14.595
   3.980        178.33	    14.629
   4.000        159.17	    13.820
   4.020        164.17	    14.036
   4.040        146.67	    13.266
   4.060        155.83	    13.675
   4.080        150.83	    13.454
   4.100        175.83	    14.526
   4.120        143.33	    13.115
   4.140        159.17	    13.820
   4.160        157.50	    13.748
   4.180        160.00	    13.856
   4.200        155.83	    13.675
   4.220        152.50	    13.528
   4.240        144.17	    13.153
   4.260        165.00	    14.071
   4.280        135.83	    12.767
   4.300        144.17	    13.153
   4.320        160.00	    13.856
   4.340        137.50	    12.845
   4.360        175.00	    14.491
   4.380        148.33	    13.342
   4.400        150.83	    13.454
   4.420        142.50	    13.077
   4.440        131.67	    12.570
   4.460        135.00	    12.728
   4.480        139.17	    12.923
   4.500        130.83	    12.530
   4.520        160.00	    13.856
   4.540        135.00	    12.728
   4.560        145.00	    13.191
   4.580        130.00	    12.490
   4.600        148.33	    13.342
   4.620        139.17	    12.923
   4.640        144.17	    13.153
   4.660        155.83	    13.675
   4.680        130.83	    12.530
   4.700        125.83	    12.288
   4.720        142.50	    13.077
   4.740        140.00	    12.961
   4.760        142.50	    13.077
   4.780        142.50	    13.077
   4.800        130.00	    12.490
   4.820        125.00	    12.247
   4.840        131.67	    12.570
   4.860        141.67	    13.038
   4.880        161.67	    13.928
   4.900        124.17	    12.207
   4.920        121.67	    12.083
   4.940        134.17	    12.689
   4.960        138.33	    12.884
   4.980        126.67	    12.329
   5.000        103.33	    11.136
   5.020        118.33	    11.916
   5.040        113.33	    11.662
   5.060        116.67	    11.832
   5.080        138.33	    12.884
   5.100        110.00	    11.489
   5.120        135.83	    12.767
   5.140        136.67	    12.806
   5.160        129.17	    12.450
   5.180        122.50	    12.124
   5.200        128.33	    12.410
   5.220        115.83	    11.790
   5.240        108.33	    11.402
   5.260        125.83	    12.288
   5.280        106.67	    11.314
   5.300        113.33	    11.662
   5.320        119.17	    11.958
   5.340        108.33	    11.402
   5.360        125.00	    12.247
   5.380        112.50	    11.619
   5.400        116.67	    11.832
   5.420        123.33	    12.166
   5.440        122.50	    12.124
   5.460        105.00	    11.225
   5.480         90.00	    10.392
   5.500        125.00	    12.247
   5.520         93.33	    10.583
   5.540        115.00	    11.747
   5.560        107.50	    11.358
   5.580        130.00	    12.490
   5.600        111.67	    11.576
   5.620        114.17	    11.705
   5.640         94.17	    10.630
   5.660        103.33	    11.136
   5.680        118.33	    11.916
   5.700        105.00	    11.225
   5.720        128.33	    12.410
   5.740        110.83	    11.533
   5.760        114.17	    11.705
   5.780        125.83	    12.288
   5.800        132.50	    12.610
   5.820        127.50	    12.369
   5.840        139.17	    12.923
   5.860        144.17	    13.153
   5.880        110.00	    11.489
   5.900        119.17	    11.958
   5.920        117.50	    11.874
   5.940        127.50	    12.369
   5.960        119.17	    11.958
   5.980        150.00	    13.416
   6.000        145.83	    13.229
   6.020        161.67	    13.928
   6.040        155.83	    13.675
   6.060        129.17	    12.450
   6.080        152.50	    13.528
   6.100        146.67	    13.266
   6.120        124.17	    12.207
   6.140        101.67	    11.045
   6.160        130.00	    12.490
   6.180        102.50	    11.091
   6.200        119.17	    11.958
   6.220        115.83	    11.790
   6.240        115.83	    11.790
   6.260        119.17	    11.958
   6.280        121.67	    12.083
   6.300        128.33	    12.410
   6.320        108.33	    11.402
   6.340        111.67	    11.576
   6.360         96.67	    10.770
   6.380        115.83	    11.790
   6.400        109.17	    11.446
   6.420        114.17	    11.705
   6.440        115.83	    11.790
   6.460        129.17	    12.450
   6.480        127.50	    12.369
   6.500        108.33	    11.402
   6.520        122.50	    12.124
   6.540        129.17	    12.450
   6.560        108.33	    11.402
   6.580        120.83	    12.042
   6.600        130.00	    12.490
   6.620        123.33	    12.166
   6.640        115.83	    11.790
   6.660        128.33	    12.410
   6.680        130.00	    12.490
   6.700        110.00	    11.489
   6.720        122.50	    12.124
   6.740        115.83	    11.790
   6.760        112.50	    11.619
   6.780        105.83	    11.269
   6.800        126.67	    12.329
   6.820        135.00	    12.728
   6.840        119.17	    11.958
   6.860        109.17	    11.446
   6.880        133.33	    12.649
   6.900        125.00	    12.247
   6.920        108.33	    11.402
   6.940        113.33	    11.662
   6.960        114.17	    11.705
   6.980        112.50	    11.619
   7.000        114.17	    11.705
   7.020        110.83	    11.533
   7.040        114.17	    11.705
   7.060        111.67	    11.576
   7.080        114.17	    11.705
   7.100        108.33	    11.402
   7.120        109.17	    11.446
   7.140        105.83	    11.269
   7.160        109.17	    11.446
   7.180        105.00	    11.225
   7.200        109.17	    11.446
   7.220        121.67	    12.083
   7.240        106.67	    11.314
   7.260        114.17	    11.705
   7.280        115.00	    11.747
   7.300        107.50	    11.358
   7.320         99.17	    10.909
   7.340        105.00	    11.225
   7.360        113.33	    11.662
   7.380        120.83	    12.042
   7.400        119.17	    11.958
   7.420        115.00	    11.747
   7.440        104.17	    11.180
   7.460        115.00	    11.747
   7.480        106.67	    11.314
   7.500        108.33	    11.402
   7.520        109.17	    11.446
   7.540         99.17	    10.909
   7.560        105.00	    11.225
   7.580        114.17	    11.705
   7.600        104.17	    11.180
   7.620        115.00	    11.747
   7.640        110.00	    11.489
   7.660        115.83	    11.790
   7.680        100.00	    10.954
   7.700        110.83	    11.533
   7.720        110.00	    11.489
   7.740         96.67	    10.770
   7.760         96.67	    10.770
   7.780        100.00	    10.954
   7.800        105.83	    11.269
   7.820        108.33	    11.402
   7.840         95.83	    10.724
   7.860        108.33	    11.402
   7.880        116.67	    11.832
   7.900        109.17	    11.446
   7.920        106.67	    11.314
   7.940        100.83	    11.000
   7.960        104.17	    11.180
   7.980         98.33	    10.863
   8.000        131.67	    12.570
   8.020         96.67	    10.770
   8.040         95.83	    10.724
   8.060        117.50	    11.874
   8.080        107.50	    11.358
   8.100        123.33	    12.166
   8.120        103.33	    11.136
   8.140        108.33	    11.402
   8.160        118.33	    11.916
   8.180        133.33	    12.649
   8.200        125.00	    12.247
   8.220        134.17	    12.689
   8.240        135.00	    12.728
   8.260        135.00	    12.728
   8.280        132.50	    12.610
   8.300        168.33	    14.213
   8.320        113.33	    11.662
   8.340        142.50	    13.077
   8.360        170.00	    14.283
   8.380        165.00	    14.071
   8.400        157.50	    13.748
   8.420        220.83	    16.279
   8.440        225.00	    16.432
   8.460        214.17	    16.031
   8.480        207.50	    15.780
   8.500        225.83	    16.462
   8.520        293.33	    18.762
   8.540        326.67	    19.799
   8.560        420.83	    22.472
   8.580        510.83	    24.759
   8.600        571.67	    26.192
   8.620        605.00	    26.944
   8.640        703.33	    29.052
   8.660        731.67	    29.631
   8.680        642.50	    27.767
   8.700        595.83	    26.739
   8.720        535.00	    25.338
   8.740        493.33	    24.331
   8.760        417.50	    22.383
   8.780        385.00	    21.494
   8.800        366.67	    20.976
   8.820        326.67	    19.799
   8.840        301.67	    19.026
   8.860        270.00	    18.000
   8.880        236.67	    16.852
   8.900        231.67	    16.673
   8.920        218.33	    16.186
   8.940        195.83	    15.330
   8.960        165.00	    14.071
   8.980        162.50	    13.964
   9.000        159.17	    13.820
   9.020        120.83	    12.042
   9.040        123.33	    12.166
   9.060         95.00	    10.677
   9.080        118.33	    11.916
   9.100        132.50	    12.610
   9.120        115.83	    11.790
   9.140        124.17	    12.207
   9.160        115.83	    11.790
   9.180        136.67	    12.806
   9.200        125.83	    12.288
   9.220        136.67	    12.806
   9.240        134.17	    12.689
   9.260        119.17	    11.958
   9.280        116.67	    11.832
   9.300        121.67	    12.083
   9.320        104.17	    11.180
   9.340        105.00	    11.225
   9.360        116.67	    11.832
   9.380        115.83	    11.790
   9.400        100.00	    10.954
   9.420         96.67	    10.770
   9.440         95.00	    10.677
   9.460        100.83	    11.000
   9.480         97.50	    10.817
   9.500         66.67	     8.944
   9.520         79.17	     9.747
   9.540         90.83	    10.440
   9.560         86.67	    10.198
   9.580         85.00	    10.100
   9.600         84.17	    10.050
   9.620         85.83	    10.149
   9.640         80.00	     9.798
   9.660         81.67	     9.899
   9.680         69.17	     9.110
   9.700         72.50	     9.327
   9.720         88.33	    10.296
   9.740         67.50	     9.000
   9.760         70.00	     9.165
   9.780         81.67	     9.899
   9.800         66.67	     8.944
   9.820         60.00	     8.485
   9.840         78.33	     9.695
   9.860         71.67	     9.274
   9.880         66.67	     8.944
   9.900         79.17	     9.747
   9.920         70.83	     9.220
   9.940         71.67	     9.274
   9.960         54.17	     8.062
   9.980         79.17	     9.747
  10.000         79.17	     9.747
  10.020         49.17	     7.681
  10.040         85.00	    10.100
  10.060         67.50	     9.000
  10.080         78.33	     9.695
  10.100         72.50	     9.327
  10.120         95.83	    10.724
  10.140        105.83	    11.269
  10.160         77.50	     9.644
  10.180         72.50	     9.327
  10.200         77.50	     9.644
  10.220         87.50	    10.247
  10.240         94.17	    10.630
  10.260         85.00	    10.100
  10.280         83.33	    10.000
  10.300         84.17	    10.050
  10.320        106.67	    11.314
  10.340         89.17	    10.344
  10.360         88.33	    10.296
  10.380         87.50	    10.247
  10.400         87.50	    10.247
  10.420         64.17	     8.775
  10.440         70.00	     9.165
  10.460         76.67	     9.592
  10.480         66.67	     8.944
  10.500         68.33	     9.055
  10.520         68.33	     9.055
  10.540         75.00	     9.487
  10.560         70.00	     9.165
  10.580         73.33	     9.381
  10.600         66.67	     8.944
  10.620         80.00	     9.798
  10.640         75.00	     9.487
  10.660         78.33	     9.695
  10.680         67.50	     9.000
  10.700         75.00	     9.487
  10.720         76.67	     9.592
  10.740         58.33	     8.367
  10.760         75.83	     9.539
  10.780         61.67	     8.602
  10.800         75.00	     9.487
  10.820         79.17	     9.747
  10.840         63.33	     8.718
  10.860         74.17	     9.434
  10.880         80.00	     9.798
  10.900         75.00	     9.487
  10.920         70.00	     9.165
  10.940         69.17	     9.110
  10.960         62.50	     8.660
  10.980         71.67	     9.274
  11.000         67.50	     9.000
  11.020         60.83	     8.544
  11.040         65.83	     8.888
  11.060         65.83	     8.888
  11.080         66.67	     8.944
  11.100         70.83	     9.220
  11.120         65.83	     8.888
  11.140         50.83	     7.810
  11.160         68.33	     9.055
  11.180         47.50	     7.550
  11.200         55.83	     8.185
  11.220         66.67	     8.944
  11.240         64.17	     8.775
  11.260         60.00	     8.485
  11.280         62.50	     8.660
  11.300         60.83	     8.544
  11.320         73.33	     9.381
  11.340         51.67	     7.874
  11.360         64.17	     8.775
  11.380         55.83	     8.185
  11.400         70.00	     9.165
  11.420         77.50	     9.644
  11.440         55.00	     8.124
  11.460         64.17	     8.775
  11.480         65.83	     8.888
  11.500         75.83	     9.539
  11.520         60.83	     8.544
  11.540         61.67	     8.602
  11.560         80.00	     9.798
  11.580         70.83	     9.220
  11.600         73.33	     9.381
  11.620         78.33	     9.695
  11.640         76.67	     9.592
  11.660         59.17	     8.426
  11.680         79.17	     9.747
  11.700         88.33	    10.296
  11.720        100.83	    11.000
  11.740         91.67	    10.488
  11.760        102.50	    11.091
  11.780         98.33	    10.863
  11.800        124.17	    12.207
  11.820        200.83	    15.524
  11.840        475.83	    23.896
  11.860        460.83	    23.516
  11.880        502.50	    24.556
  11.900        495.00	    24.372
  11.920        510.83	    24.759
  11.940        575.00	    26.268
  11.960        565.00	    26.038
  11.980        551.67	    25.729
  12.000        550.83	    25.710
  12.020        493.33	    24.331
  12.040        490.83	    24.269
  12.060        491.67	    24.290
  12.080        468.33	    23.707
  12.100        493.33	    24.331
  12.120        492.50	    24.310
  12.140        485.00	    24.125
  12.160        492.50	    24.310
  12.180        500.83	    24.515
  12.200        476.67	    23.917
  12.220        482.50	    24.062
  12.240        469.17	    23.728
  12.260        496.67	    24.413
  12.280        464.17	    23.601
  12.300        420.83	    22.472
  12.320        345.83	    20.372
  12.340        340.00	    20.199
  12.360        287.50	    18.574
  12.380        260.00	    17.664
