
Filename:
	C:\Program Files\Thermo Electron\WinXRD\Datafiles\F_HERMAN\FIEN\28_7_12_08_2_FILTER.raw

File Created:
	January 08, 2019 - 12:15 PM

Specimen Id:
	28/7 12:08 2 FILTER

Specimen Name:
	

Specimen Description:
	

Comment:
Scan Type: 2Theta Scan
Start Angle: 1 deg.
Stop Angle: 65 deg.
Num Points: 3201
Step Size: 0.02 deg.
Scan Rate: 1.000000
Scan Mode: Continuous
Wavelength: 1.540562
\Kalpha1: 1.540562	\Kalpha2: 1.544390	\Kbeta: 1.392218

Optics:
		Detector:
			 Type: Fixed Slits
		Tube: 
			 Type: Fixed Slits


Datas:
 Pos [deg]       Rate [CPS]      ESD [-]

Range 1 ---> Iteration 1
   1.000       1101.67	    36.359
   1.020        656.67	    28.071
   1.040        775.00	    30.496
   1.060        676.67	    28.496
   1.080        567.50	    26.096
   1.100        585.00	    26.495
   1.120        410.83	    22.204
   1.140        420.83	    22.472
   1.160        463.33	    23.580
   1.180        498.33	    24.454
   1.200        422.50	    22.517
   1.220        365.00	    20.928
   1.240        369.17	    21.048
   1.260        470.83	    23.770
   1.280        496.67	    24.413
   1.300        615.00	    27.166
   1.320        723.33	    29.462
   1.340        905.83	    32.970
   1.360       1091.67	    36.194
   1.380       1283.33	    39.243
   1.400       1400.00	    40.988
   1.420       1400.00	    40.988
   1.440       1280.83	    39.205
   1.460       1230.00	    38.419
   1.480       1217.50	    38.223
   1.500       1303.33	    39.547
   1.520       1193.33	    37.842
   1.540       1111.67	    36.524
   1.560       1118.33	    36.633
   1.580       1054.17	    35.567
   1.600       1013.33	    34.871
   1.620        957.50	    33.897
   1.640        910.83	    33.061
   1.660        889.17	    32.665
   1.680        844.17	    31.828
   1.700        773.33	    30.463
   1.720        731.67	    29.631
   1.740        661.67	    28.178
   1.760        667.50	    28.302
   1.780        574.17	    26.249
   1.800        544.17	    25.554
   1.820        558.33	    25.884
   1.840        529.17	    25.199
   1.860        545.00	    25.573
   1.880        488.33	    24.207
   1.900        485.83	    24.145
   1.920        480.83	    24.021
   1.940        486.67	    24.166
   1.960        429.17	    22.694
   1.980        457.50	    23.431
   2.000        424.17	    22.561
   2.020        479.17	    23.979
   2.040        415.83	    22.338
   2.060        414.17	    22.293
   2.080        415.83	    22.338
   2.100        441.67	    23.022
   2.120        411.67	    22.226
   2.140        419.17	    22.428
   2.160        428.33	    22.672
   2.180        430.83	    22.738
   2.200        352.50	    20.567
   2.220        380.00	    21.354
   2.240        375.00	    21.213
   2.260        357.50	    20.712
   2.280        360.83	    20.809
   2.300        338.33	    20.149
   2.320        355.00	    20.640
   2.340        338.33	    20.149
   2.360        343.33	    20.298
   2.380        345.00	    20.347
   2.400        332.50	    19.975
   2.420        312.50	    19.365
   2.440        322.50	    19.672
   2.460        325.83	    19.774
   2.480        362.50	    20.857
   2.500        335.00	    20.050
   2.520        320.83	    19.621
   2.540        332.50	    19.975
   2.560        333.33	    20.000
   2.580        304.17	    19.105
   2.600        327.50	    19.824
   2.620        299.17	    18.947
   2.640        320.83	    19.621
   2.660        312.50	    19.365
   2.680        299.17	    18.947
   2.700        291.67	    18.708
   2.720        283.33	    18.439
   2.740        301.67	    19.026
   2.760        299.17	    18.947
   2.780        283.33	    18.439
   2.800        274.17	    18.138
   2.820        284.17	    18.466
   2.840        285.00	    18.493
   2.860        270.00	    18.000
   2.880        277.50	    18.248
   2.900        304.17	    19.105
   2.920        266.67	    17.889
   2.940        265.00	    17.833
   2.960        275.00	    18.166
   2.980        251.67	    17.378
   3.000        260.00	    17.664
   3.020        262.50	    17.748
   3.040        253.33	    17.436
   3.060        264.17	    17.804
   3.080        246.67	    17.205
   3.100        260.83	    17.692
   3.120        235.83	    16.823
   3.140        227.50	    16.523
   3.160        243.33	    17.088
   3.180        260.00	    17.664
   3.200        215.83	    16.093
   3.220        259.17	    17.635
   3.240        231.67	    16.673
   3.260        207.50	    15.780
   3.280        237.50	    16.882
   3.300        231.67	    16.673
   3.320        226.67	    16.492
   3.340        221.67	    16.310
   3.360        232.50	    16.703
   3.380        227.50	    16.523
   3.400        226.67	    16.492
   3.420        197.50	    15.395
   3.440        212.50	    15.969
   3.460        222.50	    16.340
   3.480        194.17	    15.264
   3.500        210.00	    15.875
   3.520        214.17	    16.031
   3.540        222.50	    16.340
   3.560        210.83	    15.906
   3.580        169.17	    14.248
   3.600        190.00	    15.100
   3.620        210.83	    15.906
   3.640        215.83	    16.093
   3.660        200.83	    15.524
   3.680        210.00	    15.875
   3.700        200.83	    15.524
   3.720        220.00	    16.248
   3.740        195.83	    15.330
   3.760        214.17	    16.031
   3.780        191.67	    15.166
   3.800        216.67	    16.125
   3.820        170.83	    14.318
   3.840        175.00	    14.491
   3.860        183.33	    14.832
   3.880        218.33	    16.186
   3.900        174.17	    14.457
   3.920        197.50	    15.395
   3.940        186.67	    14.967
   3.960        184.17	    14.866
   3.980        200.00	    15.492
   4.000        180.83	    14.731
   4.020        204.17	    15.652
   4.040        162.50	    13.964
   4.060        176.67	    14.560
   4.080        175.00	    14.491
   4.100        174.17	    14.457
   4.120        167.50	    14.177
   4.140        165.00	    14.071
   4.160        175.83	    14.526
   4.180        200.83	    15.524
   4.200        164.17	    14.036
   4.220        160.83	    13.892
   4.240        189.17	    15.067
   4.260        180.83	    14.731
   4.280        164.17	    14.036
   4.300        176.67	    14.560
   4.320        166.67	    14.142
   4.340        175.00	    14.491
   4.360        181.67	    14.765
   4.380        171.67	    14.353
   4.400        164.17	    14.036
   4.420        145.83	    13.229
   4.440        175.00	    14.491
   4.460        146.67	    13.266
   4.480        168.33	    14.213
   4.500        184.17	    14.866
   4.520        182.50	    14.799
   4.540        162.50	    13.964
   4.560        141.67	    13.038
   4.580        160.00	    13.856
   4.600        151.67	    13.491
   4.620        160.83	    13.892
   4.640        135.00	    12.728
   4.660        160.00	    13.856
   4.680        169.17	    14.248
   4.700        164.17	    14.036
   4.720        165.00	    14.071
   4.740        149.17	    13.379
   4.760        159.17	    13.820
   4.780        149.17	    13.379
   4.800        152.50	    13.528
   4.820        151.67	    13.491
   4.840        130.00	    12.490
   4.860        153.33	    13.565
   4.880        145.00	    13.191
   4.900        148.33	    13.342
   4.920        152.50	    13.528
   4.940        169.17	    14.248
   4.960        153.33	    13.565
   4.980        158.33	    13.784
   5.000        135.00	    12.728
   5.020        145.83	    13.229
   5.040        150.00	    13.416
   5.060        135.83	    12.767
   5.080        164.17	    14.036
   5.100        132.50	    12.610
   5.120        140.83	    13.000
   5.140        121.67	    12.083
   5.160        141.67	    13.038
   5.180        142.50	    13.077
   5.200        120.00	    12.000
   5.220        144.17	    13.153
   5.240        142.50	    13.077
   5.260        129.17	    12.450
   5.280        126.67	    12.329
   5.300        120.83	    12.042
   5.320        132.50	    12.610
   5.340        135.83	    12.767
   5.360        127.50	    12.369
   5.380        124.17	    12.207
   5.400        141.67	    13.038
   5.420        136.67	    12.806
   5.440        119.17	    11.958
   5.460        140.00	    12.961
   5.480        118.33	    11.916
   5.500        115.00	    11.747
   5.520        119.17	    11.958
   5.540        142.50	    13.077
   5.560        125.00	    12.247
   5.580        115.83	    11.790
   5.600        128.33	    12.410
   5.620        120.00	    12.000
   5.640        130.00	    12.490
   5.660        128.33	    12.410
   5.680        135.00	    12.728
   5.700        139.17	    12.923
   5.720        114.17	    11.705
   5.740        119.17	    11.958
   5.760        146.67	    13.266
   5.780        105.83	    11.269
   5.800        130.83	    12.530
   5.820        134.17	    12.689
   5.840        118.33	    11.916
   5.860        118.33	    11.916
   5.880        146.67	    13.266
   5.900        129.17	    12.450
   5.920        135.00	    12.728
   5.940        144.17	    13.153
   5.960        130.83	    12.530
   5.980        140.83	    13.000
   6.000        145.00	    13.191
   6.020        126.67	    12.329
   6.040        140.00	    12.961
   6.060        155.83	    13.675
   6.080        154.17	    13.601
   6.100        145.00	    13.191
   6.120        162.50	    13.964
   6.140        216.67	    16.125
   6.160        197.50	    15.395
   6.180        219.17	    16.217
   6.200        213.33	    16.000
   6.220        206.67	    15.748
   6.240        203.33	    15.620
   6.260        174.17	    14.457
   6.280        160.83	    13.892
   6.300        166.67	    14.142
   6.320        142.50	    13.077
   6.340        136.67	    12.806
   6.360        137.50	    12.845
   6.380        119.17	    11.958
   6.400        147.50	    13.304
   6.420        128.33	    12.410
   6.440        133.33	    12.649
   6.460        120.83	    12.042
   6.480        100.83	    11.000
   6.500        110.00	    11.489
   6.520        118.33	    11.916
   6.540        125.00	    12.247
   6.560        104.17	    11.180
   6.580        111.67	    11.576
   6.600        108.33	    11.402
   6.620        112.50	    11.619
   6.640        111.67	    11.576
   6.660        112.50	    11.619
   6.680        120.83	    12.042
   6.700        111.67	    11.576
   6.720        110.83	    11.533
   6.740        109.17	    11.446
   6.760        110.83	    11.533
   6.780         90.83	    10.440
   6.800        106.67	    11.314
   6.820        125.00	    12.247
   6.840         89.17	    10.344
   6.860        120.00	    12.000
   6.880         97.50	    10.817
   6.900        105.00	    11.225
   6.920        100.83	    11.000
   6.940         90.00	    10.392
   6.960        115.83	    11.790
   6.980         85.83	    10.149
   7.000        106.67	    11.314
   7.020        104.17	    11.180
   7.040        105.83	    11.269
   7.060        128.33	    12.410
   7.080        119.17	    11.958
   7.100         75.00	     9.487
   7.120        106.67	    11.314
   7.140         90.00	    10.392
   7.160        103.33	    11.136
   7.180         95.00	    10.677
   7.200        105.83	    11.269
   7.220        109.17	    11.446
   7.240        102.50	    11.091
   7.260         95.83	    10.724
   7.280         94.17	    10.630
   7.300        101.67	    11.045
   7.320         83.33	    10.000
   7.340        101.67	    11.045
   7.360        100.00	    10.954
   7.380         93.33	    10.583
   7.400         82.50	     9.950
   7.420         94.17	    10.630
   7.440        106.67	    11.314
   7.460         84.17	    10.050
   7.480        102.50	    11.091
   7.500         83.33	    10.000
   7.520         82.50	     9.950
   7.540         83.33	    10.000
   7.560        105.00	    11.225
   7.580         85.00	    10.100
   7.600         95.00	    10.677
   7.620         99.17	    10.909
   7.640         90.00	    10.392
   7.660         85.00	    10.100
   7.680         90.83	    10.440
   7.700        105.83	    11.269
   7.720         84.17	    10.050
   7.740         87.50	    10.247
   7.760        100.83	    11.000
   7.780        102.50	    11.091
   7.800         88.33	    10.296
   7.820         93.33	    10.583
   7.840         89.17	    10.344
   7.860         85.83	    10.149
   7.880         95.83	    10.724
   7.900         97.50	    10.817
   7.920         86.67	    10.198
   7.940         83.33	    10.000
   7.960         80.83	     9.849
   7.980         88.33	    10.296
   8.000         70.83	     9.220
   8.020         79.17	     9.747
   8.040         69.17	     9.110
   8.060         82.50	     9.950
   8.080         64.17	     8.775
   8.100         85.83	    10.149
   8.120         75.83	     9.539
   8.140         87.50	    10.247
   8.160         81.67	     9.899
   8.180         90.83	    10.440
   8.200         66.67	     8.944
   8.220         73.33	     9.381
   8.240         81.67	     9.899
   8.260         85.83	    10.149
   8.280         75.83	     9.539
   8.300         95.83	    10.724
   8.320         92.50	    10.536
   8.340         88.33	    10.296
   8.360         80.83	     9.849
   8.380         95.00	    10.677
   8.400         80.83	     9.849
   8.420         86.67	    10.198
   8.440         89.17	    10.344
   8.460         66.67	     8.944
   8.480         95.83	    10.724
   8.500         81.67	     9.899
   8.520         80.83	     9.849
   8.540         81.67	     9.899
   8.560         82.50	     9.950
   8.580         90.00	    10.392
   8.600         91.67	    10.488
   8.620         92.50	    10.536
   8.640        103.33	    11.136
   8.660        103.33	    11.136
   8.680        105.83	    11.269
   8.700        125.83	    12.288
   8.720        110.83	    11.533
   8.740        141.67	    13.038
   8.760        140.00	    12.961
   8.780        177.50	    14.595
   8.800        201.67	    15.556
   8.820        232.50	    16.703
   8.840        273.33	    18.111
   8.860        230.83	    16.643
   8.880        176.67	    14.560
   8.900        138.33	    12.884
   8.920        110.00	    11.489
   8.940         88.33	    10.296
   8.960         72.50	     9.327
   8.980         90.00	    10.392
   9.000         92.50	    10.536
   9.020         80.00	     9.798
   9.040         72.50	     9.327
   9.060         79.17	     9.747
   9.080         77.50	     9.644
   9.100         83.33	    10.000
   9.120         89.17	    10.344
   9.140        101.67	    11.045
   9.160         79.17	     9.747
   9.180         82.50	     9.950
   9.200         63.33	     8.718
   9.220         73.33	     9.381
   9.240         70.83	     9.220
   9.260         82.50	     9.950
   9.280         70.83	     9.220
   9.300         91.67	    10.488
   9.320         99.17	    10.909
   9.340         95.00	    10.677
   9.360         95.00	    10.677
   9.380         98.33	    10.863
   9.400         77.50	     9.644
   9.420         67.50	     9.000
   9.440         85.83	    10.149
   9.460         75.00	     9.487
   9.480         80.00	     9.798
   9.500         72.50	     9.327
   9.520         67.50	     9.000
   9.540         65.83	     8.888
   9.560         68.33	     9.055
   9.580         81.67	     9.899
   9.600         71.67	     9.274
   9.620         64.17	     8.775
   9.640         64.17	     8.775
   9.660         69.17	     9.110
   9.680         69.17	     9.110
   9.700         65.83	     8.888
   9.720         54.17	     8.062
   9.740         80.00	     9.798
   9.760         53.33	     8.000
   9.780         56.67	     8.246
   9.800         69.17	     9.110
   9.820         58.33	     8.367
   9.840         60.00	     8.485
   9.860         61.67	     8.602
   9.880         65.83	     8.888
   9.900         77.50	     9.644
   9.920         60.83	     8.544
   9.940         69.17	     9.110
   9.960         64.17	     8.775
   9.980         55.83	     8.185
  10.000         49.17	     7.681
  10.020         59.17	     8.426
  10.040         63.33	     8.718
  10.060         65.00	     8.832
  10.080         60.83	     8.544
  10.100         46.67	     7.483
  10.120         72.50	     9.327
  10.140         63.33	     8.718
  10.160         60.00	     8.485
  10.180         57.50	     8.307
  10.200         55.83	     8.185
  10.220         59.17	     8.426
  10.240         59.17	     8.426
  10.260         63.33	     8.718
  10.280         55.83	     8.185
  10.300         60.83	     8.544
  10.320         54.17	     8.062
  10.340         61.67	     8.602
  10.360         75.83	     9.539
  10.380         53.33	     8.000
  10.400         59.17	     8.426
  10.420         65.00	     8.832
  10.440         58.33	     8.367
  10.460         61.67	     8.602
  10.480         61.67	     8.602
  10.500         56.67	     8.246
  10.520         58.33	     8.367
  10.540         62.50	     8.660
  10.560         60.83	     8.544
  10.580         64.17	     8.775
  10.600         60.83	     8.544
  10.620         48.33	     7.616
  10.640         56.67	     8.246
  10.660         58.33	     8.367
  10.680         60.00	     8.485
  10.700         60.00	     8.485
  10.720         51.67	     7.874
  10.740         53.33	     8.000
  10.760         65.83	     8.888
  10.780         48.33	     7.616
  10.800         47.50	     7.550
  10.820         55.00	     8.124
  10.840         62.50	     8.660
  10.860         53.33	     8.000
  10.880         69.17	     9.110
  10.900         53.33	     8.000
  10.920         57.50	     8.307
  10.940         55.83	     8.185
  10.960         49.17	     7.681
  10.980         65.00	     8.832
  11.000         71.67	     9.274
  11.020         51.67	     7.874
  11.040         55.00	     8.124
  11.060         59.17	     8.426
  11.080         64.17	     8.775
  11.100         70.00	     9.165
  11.120         63.33	     8.718
  11.140         63.33	     8.718
  11.160         31.67	     6.164
  11.180         54.17	     8.062
  11.200         45.00	     7.348
  11.220         53.33	     8.000
  11.240         59.17	     8.426
  11.260         54.17	     8.062
  11.280         55.83	     8.185
  11.300         70.00	     9.165
  11.320         52.50	     7.937
  11.340         69.17	     9.110
  11.360         39.17	     6.856
  11.380         45.83	     7.416
  11.400         56.67	     8.246
  11.420         62.50	     8.660
  11.440         57.50	     8.307
  11.460         55.00	     8.124
  11.480         65.00	     8.832
  11.500         58.33	     8.367
  11.520         45.00	     7.348
  11.540         52.50	     7.937
  11.560         40.00	     6.928
  11.580         55.00	     8.124
  11.600         53.33	     8.000
  11.620         52.50	     7.937
  11.640         36.67	     6.633
  11.660         51.67	     7.874
  11.680         55.00	     8.124
  11.700         51.67	     7.874
  11.720         70.00	     9.165
  11.740         54.17	     8.062
  11.760         60.83	     8.544
  11.780         51.67	     7.874
  11.800         61.67	     8.602
  11.820         62.50	     8.660
  11.840         61.67	     8.602
  11.860         63.33	     8.718
  11.880         55.00	     8.124
  11.900         55.83	     8.185
  11.920         55.00	     8.124
  11.940         60.83	     8.544
  11.960         55.83	     8.185
  11.980         66.67	     8.944
  12.000         73.33	     9.381
  12.020         82.50	     9.950
  12.040         83.33	    10.000
  12.060        152.50	    13.528
  12.080        192.50	    15.199
  12.100        231.67	    16.673
  12.120        270.00	    18.000
  12.140        243.33	    17.088
  12.160        189.17	    15.067
  12.180        125.83	    12.288
  12.200         97.50	    10.817
  12.220         78.33	     9.695
  12.240         95.00	    10.677
  12.260        105.00	    11.225
  12.280         86.67	    10.198
  12.300        100.83	    11.000
  12.320         83.33	    10.000
  12.340         99.17	    10.909
  12.360        123.33	    12.166
  12.380        108.33	    11.402
