
Filename:
	C:\Program Files\Thermo Electron\WinXRD\Datafiles\F_HERMAN\FIEN\2_1_AUG_RT.raw

File Created:
	February 22, 2019 - 12:36 PM

Specimen Id:
	2.1 AUGUST RT

Specimen Name:
	

Specimen Description:
	

Comment:
Scan Type: 2Theta Scan
Start Angle: 1 deg.
Stop Angle: 65 deg.
Num Points: 3201
Step Size: 0.02 deg.
Scan Rate: 1.000000
Scan Mode: Continuous
Wavelength: 1.540562
\Kalpha1: 1.540562	\Kalpha2: 1.544390	\Kbeta: 1.392218

Optics:
		Detector:
			 Type: Fixed Slits
		Tube: 
			 Type: Fixed Slits


Datas:
 Pos [deg]       Rate [CPS]      ESD [-]

Range 1 ---> Iteration 1
   1.000        945.83	    33.690
   1.020        780.83	    30.610
   1.040        545.00	    25.573
   1.060        575.83	    26.287
   1.080        500.83	    24.515
   1.100        563.33	    26.000
   1.120        480.83	    24.021
   1.140        397.50	    21.840
   1.160        434.17	    22.825
   1.180        555.83	    25.826
   1.200        408.33	    22.136
   1.220        413.33	    22.271
   1.240        411.67	    22.226
   1.260        393.33	    21.726
   1.280        460.83	    23.516
   1.300        574.17	    26.249
   1.320        635.83	    27.622
   1.340        950.00	    33.764
   1.360       1075.83	    35.930
   1.380       1101.67	    36.359
   1.400       1243.33	    38.626
   1.420       1274.17	    39.102
   1.440       1310.83	    39.661
   1.460       1190.00	    37.789
   1.480       1128.33	    36.797
   1.500       1252.50	    38.769
   1.520       1144.17	    37.054
   1.540       1196.67	    37.895
   1.560       1070.83	    35.847
   1.580       1073.33	    35.889
   1.600       1057.50	    35.623
   1.620       1045.83	    35.426
   1.640        956.67	    33.882
   1.660        850.00	    31.937
   1.680        833.33	    31.623
   1.700        750.00	    30.000
   1.720        740.83	    29.816
   1.740        637.50	    27.659
   1.760        640.00	    27.713
   1.780        616.67	    27.203
   1.800        600.00	    26.833
   1.820        505.00	    24.617
   1.840        553.33	    25.768
   1.860        495.00	    24.372
   1.880        530.83	    25.239
   1.900        518.33	    24.940
   1.920        465.00	    23.622
   1.940        444.17	    23.087
   1.960        461.67	    23.537
   1.980        465.83	    23.643
   2.000        455.83	    23.388
   2.020        460.00	    23.495
   2.040        434.17	    22.825
   2.060        420.83	    22.472
   2.080        402.50	    21.977
   2.100        410.00	    22.181
   2.120        393.33	    21.726
   2.140        401.67	    21.954
   2.160        375.00	    21.213
   2.180        385.83	    21.517
   2.200        369.17	    21.048
   2.220        372.50	    21.142
   2.240        350.83	    20.518
   2.260        360.83	    20.809
   2.280        350.00	    20.494
   2.300        357.50	    20.712
   2.320        335.83	    20.075
   2.340        317.50	    19.519
   2.360        343.33	    20.298
   2.380        341.67	    20.248
   2.400        324.17	    19.723
   2.420        349.17	    20.469
   2.440        327.50	    19.824
   2.460        328.33	    19.849
   2.480        322.50	    19.672
   2.500        321.67	    19.647
   2.520        324.17	    19.723
   2.540        320.83	    19.621
   2.560        293.33	    18.762
   2.580        316.67	    19.494
   2.600        313.33	    19.391
   2.620        310.00	    19.287
   2.640        315.00	    19.442
   2.660        298.33	    18.921
   2.680        304.17	    19.105
   2.700        271.67	    18.055
   2.720        291.67	    18.708
   2.740        276.67	    18.221
   2.760        270.00	    18.000
   2.780        268.33	    17.944
   2.800        247.50	    17.234
   2.820        274.17	    18.138
   2.840        265.00	    17.833
   2.860        271.67	    18.055
   2.880        244.17	    17.117
   2.900        255.00	    17.493
   2.920        254.17	    17.464
   2.940        265.00	    17.833
   2.960        274.17	    18.138
   2.980        275.00	    18.166
   3.000        255.83	    17.521
   3.020        261.67	    17.720
   3.040        251.67	    17.378
   3.060        220.00	    16.248
   3.080        249.17	    17.292
   3.100        228.33	    16.553
   3.120        247.50	    17.234
   3.140        289.17	    18.628
   3.160        241.67	    17.029
   3.180        232.50	    16.703
   3.200        248.33	    17.263
   3.220        223.33	    16.371
   3.240        235.00	    16.793
   3.260        238.33	    16.912
   3.280        219.17	    16.217
   3.300        230.83	    16.643
   3.320        220.83	    16.279
   3.340        227.50	    16.523
   3.360        236.67	    16.852
   3.380        219.17	    16.217
   3.400        218.33	    16.186
   3.420        230.83	    16.643
   3.440        198.33	    15.427
   3.460        220.83	    16.279
   3.480        195.00	    15.297
   3.500        225.83	    16.462
   3.520        204.17	    15.652
   3.540        214.17	    16.031
   3.560        180.00	    14.697
   3.580        205.00	    15.684
   3.600        196.67	    15.362
   3.620        217.50	    16.155
   3.640        205.83	    15.716
   3.660        213.33	    16.000
   3.680        218.33	    16.186
   3.700        192.50	    15.199
   3.720        185.00	    14.900
   3.740        185.83	    14.933
   3.760        216.67	    16.125
   3.780        165.00	    14.071
   3.800        183.33	    14.832
   3.820        183.33	    14.832
   3.840        194.17	    15.264
   3.860        189.17	    15.067
   3.880        165.83	    14.107
   3.900        201.67	    15.556
   3.920        198.33	    15.427
   3.940        190.00	    15.100
   3.960        182.50	    14.799
   3.980        176.67	    14.560
   4.000        180.83	    14.731
   4.020        187.50	    15.000
   4.040        195.00	    15.297
   4.060        190.83	    15.133
   4.080        190.00	    15.100
   4.100        170.83	    14.318
   4.120        161.67	    13.928
   4.140        182.50	    14.799
   4.160        180.83	    14.731
   4.180        164.17	    14.036
   4.200        168.33	    14.213
   4.220        170.00	    14.283
   4.240        162.50	    13.964
   4.260        169.17	    14.248
   4.280        173.33	    14.422
   4.300        178.33	    14.629
   4.320        176.67	    14.560
   4.340        165.00	    14.071
   4.360        179.17	    14.663
   4.380        176.67	    14.560
   4.400        146.67	    13.266
   4.420        146.67	    13.266
   4.440        166.67	    14.142
   4.460        166.67	    14.142
   4.480        160.83	    13.892
   4.500        142.50	    13.077
   4.520        171.67	    14.353
   4.540        152.50	    13.528
   4.560        175.83	    14.526
   4.580        147.50	    13.304
   4.600        154.17	    13.601
   4.620        166.67	    14.142
   4.640        173.33	    14.422
   4.660        149.17	    13.379
   4.680        149.17	    13.379
   4.700        157.50	    13.748
   4.720        153.33	    13.565
   4.740        132.50	    12.610
   4.760        150.83	    13.454
   4.780        127.50	    12.369
   4.800        150.83	    13.454
   4.820        136.67	    12.806
   4.840        145.00	    13.191
   4.860        145.83	    13.229
   4.880        123.33	    12.166
   4.900        169.17	    14.248
   4.920        151.67	    13.491
   4.940        134.17	    12.689
   4.960        149.17	    13.379
   4.980        132.50	    12.610
   5.000        138.33	    12.884
   5.020        130.83	    12.530
   5.040        131.67	    12.570
   5.060        138.33	    12.884
   5.080        145.83	    13.229
   5.100        133.33	    12.649
   5.120        137.50	    12.845
   5.140        139.17	    12.923
   5.160        134.17	    12.689
   5.180        125.00	    12.247
   5.200        122.50	    12.124
   5.220        145.00	    13.191
   5.240        152.50	    13.528
   5.260        117.50	    11.874
   5.280        117.50	    11.874
   5.300        117.50	    11.874
   5.320        130.83	    12.530
   5.340        129.17	    12.450
   5.360        120.83	    12.042
   5.380        110.00	    11.489
   5.400        135.83	    12.767
   5.420        131.67	    12.570
   5.440        134.17	    12.689
   5.460        160.00	    13.856
   5.480        129.17	    12.450
   5.500        136.67	    12.806
   5.520        123.33	    12.166
   5.540        131.67	    12.570
   5.560        123.33	    12.166
   5.580        134.17	    12.689
   5.600        125.00	    12.247
   5.620        130.00	    12.490
   5.640        132.50	    12.610
   5.660        126.67	    12.329
   5.680        122.50	    12.124
   5.700        119.17	    11.958
   5.720        115.83	    11.790
   5.740        116.67	    11.832
   5.760        132.50	    12.610
   5.780        143.33	    13.115
   5.800        140.83	    13.000
   5.820        135.00	    12.728
   5.840        125.83	    12.288
   5.860        136.67	    12.806
   5.880        130.83	    12.530
   5.900        141.67	    13.038
   5.920        120.83	    12.042
   5.940        142.50	    13.077
   5.960        130.83	    12.530
   5.980        139.17	    12.923
   6.000        140.00	    12.961
   6.020        117.50	    11.874
   6.040        157.50	    13.748
   6.060        145.00	    13.191
   6.080        180.00	    14.697
   6.100        162.50	    13.964
   6.120        161.67	    13.928
   6.140        200.83	    15.524
   6.160        244.17	    17.117
   6.180        230.83	    16.643
   6.200        231.67	    16.673
   6.220        234.17	    16.763
   6.240        246.67	    17.205
   6.260        240.83	    17.000
   6.280        180.00	    14.697
   6.300        135.00	    12.728
   6.320        130.00	    12.490
   6.340        130.83	    12.530
   6.360        130.00	    12.490
   6.380        143.33	    13.115
   6.400        129.17	    12.450
   6.420        139.17	    12.923
   6.440        108.33	    11.402
   6.460         95.00	    10.677
   6.480        102.50	    11.091
   6.500        104.17	    11.180
   6.520         99.17	    10.909
   6.540        101.67	    11.045
   6.560        106.67	    11.314
   6.580        124.17	    12.207
   6.600        111.67	    11.576
   6.620        117.50	    11.874
   6.640        114.17	    11.705
   6.660         91.67	    10.488
   6.680        111.67	    11.576
   6.700        124.17	    12.207
   6.720         93.33	    10.583
   6.740        109.17	    11.446
   6.760        115.83	    11.790
   6.780        123.33	    12.166
   6.800        130.00	    12.490
   6.820        113.33	    11.662
   6.840        110.00	    11.489
   6.860        101.67	    11.045
   6.880         95.00	    10.677
   6.900        125.83	    12.288
   6.920        104.17	    11.180
   6.940        100.00	    10.954
   6.960         95.00	    10.677
   6.980        114.17	    11.705
   7.000         93.33	    10.583
   7.020        126.67	    12.329
   7.040        112.50	    11.619
   7.060        105.83	    11.269
   7.080        115.83	    11.790
   7.100        110.00	    11.489
   7.120        100.00	    10.954
   7.140        103.33	    11.136
   7.160         93.33	    10.583
   7.180        100.00	    10.954
   7.200        105.83	    11.269
   7.220        101.67	    11.045
   7.240        109.17	    11.446
   7.260        100.00	    10.954
   7.280        102.50	    11.091
   7.300         98.33	    10.863
   7.320         83.33	    10.000
   7.340         92.50	    10.536
   7.360         90.00	    10.392
   7.380         93.33	    10.583
   7.400         95.00	    10.677
   7.420         90.83	    10.440
   7.440         84.17	    10.050
   7.460        111.67	    11.576
   7.480         85.83	    10.149
   7.500         97.50	    10.817
   7.520         86.67	    10.198
   7.540         98.33	    10.863
   7.560         86.67	    10.198
   7.580         75.00	     9.487
   7.600         97.50	    10.817
   7.620         86.67	    10.198
   7.640         98.33	    10.863
   7.660        100.83	    11.000
   7.680        116.67	    11.832
   7.700        104.17	    11.180
   7.720        106.67	    11.314
   7.740         90.00	    10.392
   7.760         97.50	    10.817
   7.780         83.33	    10.000
   7.800         76.67	     9.592
   7.820         90.83	    10.440
   7.840         79.17	     9.747
   7.860         92.50	    10.536
   7.880        107.50	    11.358
   7.900        112.50	    11.619
   7.920         91.67	    10.488
   7.940         78.33	     9.695
   7.960         95.83	    10.724
   7.980         90.83	    10.440
   8.000         95.00	    10.677
   8.020         93.33	    10.583
   8.040         90.83	    10.440
   8.060        106.67	    11.314
   8.080         99.17	    10.909
   8.100         85.83	    10.149
   8.120         86.67	    10.198
   8.140         88.33	    10.296
   8.160         82.50	     9.950
   8.180         88.33	    10.296
   8.200         85.83	    10.149
   8.220         87.50	    10.247
   8.240         81.67	     9.899
   8.260        102.50	    11.091
   8.280         85.00	    10.100
   8.300        108.33	    11.402
   8.320         99.17	    10.909
   8.340         81.67	     9.899
   8.360         94.17	    10.630
   8.380         90.00	    10.392
   8.400         95.00	    10.677
   8.420         88.33	    10.296
   8.440         99.17	    10.909
   8.460        112.50	    11.619
   8.480         87.50	    10.247
   8.500         97.50	    10.817
   8.520         95.83	    10.724
   8.540        116.67	    11.832
   8.560        105.83	    11.269
   8.580         97.50	    10.817
   8.600        101.67	    11.045
   8.620        130.00	    12.490
   8.640        122.50	    12.124
   8.660        126.67	    12.329
   8.680        152.50	    13.528
   8.700        129.17	    12.450
   8.720        160.83	    13.892
   8.740        189.17	    15.067
   8.760        205.00	    15.684
   8.780        246.67	    17.205
   8.800        230.00	    16.613
   8.820        340.83	    20.224
   8.840        457.50	    23.431
   8.860        605.83	    26.963
   8.880        757.50	    30.150
   8.900        735.83	    29.715
   8.920        578.33	    26.344
   8.940        375.00	    21.213
   8.960        220.00	    16.248
   8.980        130.83	    12.530
   9.000        103.33	    11.136
   9.020        115.83	    11.790
   9.040         89.17	    10.344
   9.060        102.50	    11.091
   9.080         90.83	    10.440
   9.100         99.17	    10.909
   9.120        139.17	    12.923
   9.140         95.83	    10.724
   9.160         97.50	    10.817
   9.180         94.17	    10.630
   9.200         83.33	    10.000
   9.220        106.67	    11.314
   9.240        100.83	    11.000
   9.260         72.50	     9.327
   9.280         73.33	     9.381
   9.300         71.67	     9.274
   9.320         95.83	    10.724
   9.340         80.83	     9.849
   9.360         90.00	    10.392
   9.380         94.17	    10.630
   9.400         93.33	    10.583
   9.420         87.50	    10.247
   9.440         96.67	    10.770
   9.460         89.17	    10.344
   9.480         83.33	    10.000
   9.500         64.17	     8.775
   9.520         69.17	     9.110
   9.540         80.00	     9.798
   9.560         85.83	    10.149
   9.580         91.67	    10.488
   9.600         94.17	    10.630
   9.620         78.33	     9.695
   9.640         72.50	     9.327
   9.660         79.17	     9.747
   9.680         74.17	     9.434
   9.700         62.50	     8.660
   9.720         89.17	    10.344
   9.740         74.17	     9.434
   9.760         79.17	     9.747
   9.780         82.50	     9.950
   9.800         85.83	    10.149
   9.820         89.17	    10.344
   9.840         98.33	    10.863
   9.860         70.83	     9.220
   9.880         70.83	     9.220
   9.900         87.50	    10.247
   9.920         75.83	     9.539
   9.940         70.00	     9.165
   9.960         68.33	     9.055
   9.980         76.67	     9.592
  10.000         82.50	     9.950
  10.020         74.17	     9.434
  10.040         80.00	     9.798
  10.060         74.17	     9.434
  10.080         83.33	    10.000
  10.100         85.83	    10.149
  10.120         72.50	     9.327
  10.140         77.50	     9.644
  10.160         79.17	     9.747
  10.180         70.00	     9.165
  10.200         75.00	     9.487
  10.220         83.33	    10.000
  10.240         61.67	     8.602
  10.260         68.33	     9.055
  10.280         58.33	     8.367
  10.300         54.17	     8.062
  10.320         76.67	     9.592
  10.340         61.67	     8.602
  10.360         76.67	     9.592
  10.380         80.83	     9.849
  10.400         79.17	     9.747
  10.420         75.83	     9.539
  10.440         75.00	     9.487
  10.460         85.83	    10.149
  10.480         89.17	    10.344
  10.500         95.83	    10.724
  10.520         90.00	    10.392
  10.540         76.67	     9.592
  10.560         82.50	     9.950
  10.580        100.83	    11.000
  10.600         77.50	     9.644
  10.620         75.83	     9.539
  10.640         70.00	     9.165
  10.660         67.50	     9.000
  10.680         73.33	     9.381
  10.700         75.00	     9.487
  10.720         72.50	     9.327
  10.740         82.50	     9.950
  10.760         66.67	     8.944
  10.780         75.83	     9.539
  10.800         70.83	     9.220
  10.820         78.33	     9.695
  10.840         75.00	     9.487
  10.860         64.17	     8.775
  10.880         69.17	     9.110
  10.900         66.67	     8.944
  10.920         69.17	     9.110
  10.940         67.50	     9.000
  10.960         69.17	     9.110
  10.980         73.33	     9.381
  11.000         73.33	     9.381
  11.020         84.17	    10.050
  11.040         76.67	     9.592
  11.060         80.83	     9.849
  11.080         70.83	     9.220
  11.100         65.83	     8.888
  11.120         55.83	     8.185
  11.140         70.83	     9.220
  11.160         77.50	     9.644
  11.180         71.67	     9.274
  11.200         61.67	     8.602
  11.220         60.83	     8.544
  11.240         70.00	     9.165
  11.260         81.67	     9.899
  11.280         75.00	     9.487
  11.300         65.00	     8.832
  11.320         75.00	     9.487
  11.340         68.33	     9.055
  11.360         67.50	     9.000
  11.380         75.83	     9.539
  11.400         61.67	     8.602
  11.420         71.67	     9.274
  11.440         69.17	     9.110
  11.460         75.83	     9.539
  11.480         68.33	     9.055
  11.500         73.33	     9.381
  11.520         75.00	     9.487
  11.540         71.67	     9.274
  11.560         66.67	     8.944
  11.580         73.33	     9.381
  11.600         75.83	     9.539
  11.620         95.83	    10.724
  11.640         63.33	     8.718
  11.660         70.83	     9.220
  11.680         86.67	    10.198
  11.700         72.50	     9.327
  11.720         65.83	     8.888
  11.740         62.50	     8.660
  11.760         65.00	     8.832
  11.780         75.83	     9.539
  11.800         69.17	     9.110
  11.820         72.50	     9.327
  11.840         73.33	     9.381
  11.860         77.50	     9.644
  11.880         68.33	     9.055
  11.900         79.17	     9.747
  11.920         83.33	    10.000
  11.940         80.83	     9.849
  11.960         88.33	    10.296
  11.980         93.33	    10.583
  12.000        101.67	    11.045
  12.020         87.50	    10.247
  12.040         97.50	    10.817
  12.060         96.67	    10.770
  12.080        119.17	    11.958
  12.100        160.83	    13.892
  12.120        170.83	    14.318
  12.140        278.33	    18.276
  12.160        423.33	    22.539
  12.180        613.33	    27.129
  12.200        684.17	    28.653
  12.220        561.67	    25.962
  12.240        371.67	    21.119
  12.260        202.50	    15.588
  12.280        175.83	    14.526
  12.300        165.83	    14.107
  12.320        172.50	    14.387
  12.340        217.50	    16.155
  12.360        225.83	    16.462
  12.380        198.33	    15.427
