
Filename:
	C:\Program Files\Thermo Electron\WinXRD\Datafiles\F_HERMAN\FIEN\2_2_SEPT_FILTER.raw

File Created:
	February 22, 2019 - 01:41 PM

Specimen Id:
	2.2 SEPT FILTER

Specimen Name:
	

Specimen Description:
	

Comment:
Scan Type: 2Theta Scan
Start Angle: 1 deg.
Stop Angle: 65 deg.
Num Points: 3201
Step Size: 0.02 deg.
Scan Rate: 1.000000
Scan Mode: Continuous
Wavelength: 1.540562
\Kalpha1: 1.540562	\Kalpha2: 1.544390	\Kbeta: 1.392218

Optics:
		Detector:
			 Type: Fixed Slits
		Tube: 
			 Type: Fixed Slits


Datas:
 Pos [deg]       Rate [CPS]      ESD [-]

Range 1 ---> Iteration 1
   1.000        725.83	    29.513
   1.020        602.50	    26.889
   1.040        660.00	    28.142
   1.060        555.00	    25.807
   1.080        496.67	    24.413
   1.100        444.17	    23.087
   1.120        523.33	    25.060
   1.140        496.67	    24.413
   1.160        490.00	    24.249
   1.180        382.50	    21.424
   1.200        375.00	    21.213
   1.220        375.00	    21.213
   1.240        411.67	    22.226
   1.260        467.50	    23.685
   1.280        475.00	    23.875
   1.300        541.67	    25.495
   1.320        592.50	    26.665
   1.340        767.50	    30.348
   1.360       1055.00	    35.581
   1.380       1115.83	    36.592
   1.400       1260.00	    38.884
   1.420       1215.83	    38.197
   1.440       1271.67	    39.064
   1.460       1138.33	    36.959
   1.480       1150.00	    37.148
   1.500       1148.33	    37.121
   1.520       1060.83	    35.679
   1.540       1025.00	    35.071
   1.560       1052.50	    35.539
   1.580        912.50	    33.091
   1.600        945.00	    33.675
   1.620        928.33	    33.377
   1.640        830.83	    31.575
   1.660        813.33	    31.241
   1.680        765.00	    30.299
   1.700        710.83	    29.206
   1.720        677.50	    28.513
   1.740        665.00	    28.249
   1.760        594.17	    26.702
   1.780        587.50	    26.552
   1.800        500.83	    24.515
   1.820        539.17	    25.436
   1.840        456.67	    23.409
   1.860        463.33	    23.580
   1.880        432.50	    22.782
   1.900        451.67	    23.281
   1.920        440.83	    23.000
   1.940        425.00	    22.583
   1.960        385.00	    21.494
   1.980        381.67	    21.401
   2.000        345.83	    20.372
   2.020        396.67	    21.817
   2.040        379.17	    21.331
   2.060        367.50	    21.000
   2.080        356.67	    20.688
   2.100        357.50	    20.712
   2.120        354.17	    20.616
   2.140        345.83	    20.372
   2.160        354.17	    20.616
   2.180        330.00	    19.900
   2.200        285.83	    18.520
   2.220        311.67	    19.339
   2.240        300.83	    19.000
   2.260        315.00	    19.442
   2.280        290.00	    18.655
   2.300        295.83	    18.841
   2.320        277.50	    18.248
   2.340        285.00	    18.493
   2.360        297.50	    18.894
   2.380        287.50	    18.574
   2.400        291.67	    18.708
   2.420        251.67	    17.378
   2.440        286.67	    18.547
   2.460        284.17	    18.466
   2.480        282.50	    18.412
   2.500        237.50	    16.882
   2.520        255.00	    17.493
   2.540        275.00	    18.166
   2.560        259.17	    17.635
   2.580        243.33	    17.088
   2.600        265.83	    17.861
   2.620        234.17	    16.763
   2.640        284.17	    18.466
   2.660        235.00	    16.793
   2.680        239.17	    16.941
   2.700        239.17	    16.941
   2.720        249.17	    17.292
   2.740        230.83	    16.643
   2.760        215.83	    16.093
   2.780        258.33	    17.607
   2.800        235.00	    16.793
   2.820        209.17	    15.843
   2.840        238.33	    16.912
   2.860        215.00	    16.062
   2.880        207.50	    15.780
   2.900        215.00	    16.062
   2.920        206.67	    15.748
   2.940        201.67	    15.556
   2.960        227.50	    16.523
   2.980        250.83	    17.349
   3.000        221.67	    16.310
   3.020        188.33	    15.033
   3.040        218.33	    16.186
   3.060        219.17	    16.217
   3.080        205.83	    15.716
   3.100        221.67	    16.310
   3.120        195.83	    15.330
   3.140        210.83	    15.906
   3.160        198.33	    15.427
   3.180        191.67	    15.166
   3.200        209.17	    15.843
   3.220        168.33	    14.213
   3.240        198.33	    15.427
   3.260        192.50	    15.199
   3.280        190.83	    15.133
   3.300        184.17	    14.866
   3.320        200.00	    15.492
   3.340        189.17	    15.067
   3.360        169.17	    14.248
   3.380        192.50	    15.199
   3.400        185.83	    14.933
   3.420        163.33	    14.000
   3.440        170.83	    14.318
   3.460        179.17	    14.663
   3.480        215.83	    16.093
   3.500        170.00	    14.283
   3.520        167.50	    14.177
   3.540        163.33	    14.000
   3.560        192.50	    15.199
   3.580        184.17	    14.866
   3.600        177.50	    14.595
   3.620        176.67	    14.560
   3.640        155.00	    13.638
   3.660        160.00	    13.856
   3.680        148.33	    13.342
   3.700        163.33	    14.000
   3.720        141.67	    13.038
   3.740        170.83	    14.318
   3.760        152.50	    13.528
   3.780        164.17	    14.036
   3.800        165.83	    14.107
   3.820        157.50	    13.748
   3.840        167.50	    14.177
   3.860        143.33	    13.115
   3.880        178.33	    14.629
   3.900        144.17	    13.153
   3.920        118.33	    11.916
   3.940        157.50	    13.748
   3.960        143.33	    13.115
   3.980        136.67	    12.806
   4.000        160.83	    13.892
   4.020        156.67	    13.711
   4.040        150.00	    13.416
   4.060        154.17	    13.601
   4.080        145.83	    13.229
   4.100        150.83	    13.454
   4.120        131.67	    12.570
   4.140        122.50	    12.124
   4.160        136.67	    12.806
   4.180        162.50	    13.964
   4.200        144.17	    13.153
   4.220        141.67	    13.038
   4.240        144.17	    13.153
   4.260        119.17	    11.958
   4.280        146.67	    13.266
   4.300        135.00	    12.728
   4.320        134.17	    12.689
   4.340        130.00	    12.490
   4.360        141.67	    13.038
   4.380        139.17	    12.923
   4.400        135.83	    12.767
   4.420        114.17	    11.705
   4.440        125.00	    12.247
   4.460        127.50	    12.369
   4.480        141.67	    13.038
   4.500        120.83	    12.042
   4.520        122.50	    12.124
   4.540        113.33	    11.662
   4.560        124.17	    12.207
   4.580        131.67	    12.570
   4.600        135.00	    12.728
   4.620        125.83	    12.288
   4.640        125.00	    12.247
   4.660        137.50	    12.845
   4.680        129.17	    12.450
   4.700        122.50	    12.124
   4.720        128.33	    12.410
   4.740        123.33	    12.166
   4.760        127.50	    12.369
   4.780        121.67	    12.083
   4.800        111.67	    11.576
   4.820        107.50	    11.358
   4.840        125.00	    12.247
   4.860        115.00	    11.747
   4.880        115.00	    11.747
   4.900        106.67	    11.314
   4.920        125.00	    12.247
   4.940        118.33	    11.916
   4.960        115.00	    11.747
   4.980        105.00	    11.225
   5.000        115.83	    11.790
   5.020         99.17	    10.909
   5.040        114.17	    11.705
   5.060         90.83	    10.440
   5.080        106.67	    11.314
   5.100        118.33	    11.916
   5.120        125.83	    12.288
   5.140        107.50	    11.358
   5.160        105.83	    11.269
   5.180        114.17	    11.705
   5.200        104.17	    11.180
   5.220        121.67	    12.083
   5.240         86.67	    10.198
   5.260         96.67	    10.770
   5.280        100.83	    11.000
   5.300        100.00	    10.954
   5.320        116.67	    11.832
   5.340        112.50	    11.619
   5.360        116.67	    11.832
   5.380         92.50	    10.536
   5.400        105.83	    11.269
   5.420        107.50	    11.358
   5.440        111.67	    11.576
   5.460        110.00	    11.489
   5.480         95.00	    10.677
   5.500        111.67	    11.576
   5.520        101.67	    11.045
   5.540        102.50	    11.091
   5.560        102.50	    11.091
   5.580         92.50	    10.536
   5.600        108.33	    11.402
   5.620        115.83	    11.790
   5.640        120.00	    12.000
   5.660        100.83	    11.000
   5.680        102.50	    11.091
   5.700        123.33	    12.166
   5.720        100.83	    11.000
   5.740        102.50	    11.091
   5.760         96.67	    10.770
   5.780         85.00	    10.100
   5.800        111.67	    11.576
   5.820        104.17	    11.180
   5.840        119.17	    11.958
   5.860        100.83	    11.000
   5.880        100.00	    10.954
   5.900        113.33	    11.662
   5.920         94.17	    10.630
   5.940        103.33	    11.136
   5.960        110.83	    11.533
   5.980        115.83	    11.790
   6.000        105.83	    11.269
   6.020        114.17	    11.705
   6.040        147.50	    13.304
   6.060        120.83	    12.042
   6.080        123.33	    12.166
   6.100        117.50	    11.874
   6.120        135.83	    12.767
   6.140        140.00	    12.961
   6.160        121.67	    12.083
   6.180        140.00	    12.961
   6.200        129.17	    12.450
   6.220        119.17	    11.958
   6.240        142.50	    13.077
   6.260        135.83	    12.767
   6.280        166.67	    14.142
   6.300        138.33	    12.884
   6.320        155.00	    13.638
   6.340        172.50	    14.387
   6.360        160.83	    13.892
   6.380        165.00	    14.071
   6.400        190.83	    15.133
   6.420        160.83	    13.892
   6.440        150.00	    13.416
   6.460        136.67	    12.806
   6.480        111.67	    11.576
   6.500        127.50	    12.369
   6.520        107.50	    11.358
   6.540        113.33	    11.662
   6.560        112.50	    11.619
   6.580         92.50	    10.536
   6.600        107.50	    11.358
   6.620        114.17	    11.705
   6.640        103.33	    11.136
   6.660         81.67	     9.899
   6.680         88.33	    10.296
   6.700         91.67	    10.488
   6.720        101.67	    11.045
   6.740         89.17	    10.344
   6.760         98.33	    10.863
   6.780         92.50	    10.536
   6.800         90.83	    10.440
   6.820         90.83	    10.440
   6.840         93.33	    10.583
   6.860        101.67	    11.045
   6.880         77.50	     9.644
   6.900         95.00	    10.677
   6.920         92.50	    10.536
   6.940        100.00	    10.954
   6.960        104.17	    11.180
   6.980         80.00	     9.798
   7.000         90.83	    10.440
   7.020         87.50	    10.247
   7.040         92.50	    10.536
   7.060         71.67	     9.274
   7.080         95.83	    10.724
   7.100         96.67	    10.770
   7.120         81.67	     9.899
   7.140         93.33	    10.583
   7.160         68.33	     9.055
   7.180        102.50	    11.091
   7.200         69.17	     9.110
   7.220         92.50	    10.536
   7.240         91.67	    10.488
   7.260         65.83	     8.888
   7.280         85.83	    10.149
   7.300         92.50	    10.536
   7.320         82.50	     9.950
   7.340         81.67	     9.899
   7.360         74.17	     9.434
   7.380         93.33	    10.583
   7.400         75.83	     9.539
   7.420         80.83	     9.849
   7.440         69.17	     9.110
   7.460         71.67	     9.274
   7.480         72.50	     9.327
   7.500         80.00	     9.798
   7.520         90.83	    10.440
   7.540         77.50	     9.644
   7.560         63.33	     8.718
   7.580         75.00	     9.487
   7.600         83.33	    10.000
   7.620         78.33	     9.695
   7.640         81.67	     9.899
   7.660         68.33	     9.055
   7.680         79.17	     9.747
   7.700         74.17	     9.434
   7.720         76.67	     9.592
   7.740         65.83	     8.888
   7.760         66.67	     8.944
   7.780         68.33	     9.055
   7.800         83.33	    10.000
   7.820         80.83	     9.849
   7.840         68.33	     9.055
   7.860         77.50	     9.644
   7.880         81.67	     9.899
   7.900         61.67	     8.602
   7.920         76.67	     9.592
   7.940         67.50	     9.000
   7.960         70.00	     9.165
   7.980         64.17	     8.775
   8.000         80.00	     9.798
   8.020         61.67	     8.602
   8.040         71.67	     9.274
   8.060         60.00	     8.485
   8.080         68.33	     9.055
   8.100         70.00	     9.165
   8.120         75.83	     9.539
   8.140         68.33	     9.055
   8.160         71.67	     9.274
   8.180         74.17	     9.434
   8.200         76.67	     9.592
   8.220         80.00	     9.798
   8.240         81.67	     9.899
   8.260         75.83	     9.539
   8.280         67.50	     9.000
   8.300         79.17	     9.747
   8.320         79.17	     9.747
   8.340         50.83	     7.810
   8.360         70.83	     9.220
   8.380         62.50	     8.660
   8.400         65.83	     8.888
   8.420         70.83	     9.220
   8.440         65.83	     8.888
   8.460         67.50	     9.000
   8.480         78.33	     9.695
   8.500         83.33	    10.000
   8.520         72.50	     9.327
   8.540         80.00	     9.798
   8.560         69.17	     9.110
   8.580         77.50	     9.644
   8.600         84.17	    10.050
   8.620         91.67	    10.488
   8.640         98.33	    10.863
   8.660         88.33	    10.296
   8.680         85.83	    10.149
   8.700        108.33	    11.402
   8.720         85.83	    10.149
   8.740        100.83	    11.000
   8.760        118.33	    11.916
   8.780        136.67	    12.806
   8.800        133.33	    12.649
   8.820        125.00	    12.247
   8.840        123.33	    12.166
   8.860        154.17	    13.601
   8.880        155.00	    13.638
   8.900        171.67	    14.353
   8.920        202.50	    15.588
   8.940        216.67	    16.125
   8.960        270.83	    18.028
   8.980        327.50	    19.824
   9.000        375.00	    21.213
   9.020        347.50	    20.421
   9.040        333.33	    20.000
   9.060        369.17	    21.048
   9.080        313.33	    19.391
   9.100        283.33	    18.439
   9.120        196.67	    15.362
   9.140        142.50	    13.077
   9.160        106.67	    11.314
   9.180         90.83	    10.440
   9.200         77.50	     9.644
   9.220         90.83	    10.440
   9.240         83.33	    10.000
   9.260         80.83	     9.849
   9.280         82.50	     9.950
   9.300         83.33	    10.000
   9.320         77.50	     9.644
   9.340         71.67	     9.274
   9.360         80.83	     9.849
   9.380         82.50	     9.950
   9.400        107.50	    11.358
   9.420        101.67	    11.045
   9.440         88.33	    10.296
   9.460         76.67	     9.592
   9.480         63.33	     8.718
   9.500         70.83	     9.220
   9.520         74.17	     9.434
   9.540         59.17	     8.426
   9.560         72.50	     9.327
   9.580         70.00	     9.165
   9.600         91.67	    10.488
   9.620         65.00	     8.832
   9.640         63.33	     8.718
   9.660         60.00	     8.485
   9.680         60.83	     8.544
   9.700         52.50	     7.937
   9.720         49.17	     7.681
   9.740         52.50	     7.937
   9.760         40.00	     6.928
   9.780         54.17	     8.062
   9.800         54.17	     8.062
   9.820         65.00	     8.832
   9.840         53.33	     8.000
   9.860         50.00	     7.746
   9.880         58.33	     8.367
   9.900         50.83	     7.810
   9.920         51.67	     7.874
   9.940         71.67	     9.274
   9.960         63.33	     8.718
   9.980         66.67	     8.944
  10.000         45.83	     7.416
  10.020         68.33	     9.055
  10.040         45.00	     7.348
  10.060         59.17	     8.426
  10.080         45.83	     7.416
  10.100         47.50	     7.550
  10.120         49.17	     7.681
  10.140         52.50	     7.937
  10.160         48.33	     7.616
  10.180         58.33	     8.367
  10.200         44.17	     7.280
  10.220         37.50	     6.708
  10.240         40.00	     6.928
  10.260         43.33	     7.211
  10.280         44.17	     7.280
  10.300         46.67	     7.483
  10.320         44.17	     7.280
  10.340         45.83	     7.416
  10.360         44.17	     7.280
  10.380         42.50	     7.141
  10.400         36.67	     6.633
  10.420         49.17	     7.681
  10.440         57.50	     8.307
  10.460         49.17	     7.681
  10.480         52.50	     7.937
  10.500         55.00	     8.124
  10.520         47.50	     7.550
  10.540         48.33	     7.616
  10.560         58.33	     8.367
  10.580         53.33	     8.000
  10.600         57.50	     8.307
  10.620         63.33	     8.718
  10.640         68.33	     9.055
  10.660         50.83	     7.810
  10.680         72.50	     9.327
  10.700         85.83	    10.149
  10.720         68.33	     9.055
  10.740         67.50	     9.000
  10.760         55.83	     8.185
  10.780         48.33	     7.616
  10.800         51.67	     7.874
  10.820         45.00	     7.348
  10.840         41.67	     7.071
  10.860         42.50	     7.141
  10.880         39.17	     6.856
  10.900         39.17	     6.856
  10.920         45.83	     7.416
  10.940         46.67	     7.483
  10.960         48.33	     7.616
  10.980         52.50	     7.937
  11.000         45.83	     7.416
  11.020         47.50	     7.550
  11.040         44.17	     7.280
  11.060         43.33	     7.211
  11.080         56.67	     8.246
  11.100         45.00	     7.348
  11.120         40.00	     6.928
  11.140         49.17	     7.681
  11.160         50.00	     7.746
  11.180         47.50	     7.550
  11.200         42.50	     7.141
  11.220         44.17	     7.280
  11.240         45.00	     7.348
  11.260         43.33	     7.211
  11.280         55.00	     8.124
  11.300         54.17	     8.062
  11.320         36.67	     6.633
  11.340         34.17	     6.403
  11.360         51.67	     7.874
  11.380         45.83	     7.416
  11.400         50.00	     7.746
  11.420         49.17	     7.681
  11.440         45.00	     7.348
  11.460         52.50	     7.937
  11.480         53.33	     8.000
  11.500         42.50	     7.141
  11.520         51.67	     7.874
  11.540         51.67	     7.874
  11.560         49.17	     7.681
  11.580         47.50	     7.550
  11.600         38.33	     6.782
  11.620         40.83	     7.000
  11.640         35.00	     6.481
  11.660         45.83	     7.416
  11.680         41.67	     7.071
  11.700         48.33	     7.616
  11.720         29.17	     5.916
  11.740         55.83	     8.185
  11.760         39.17	     6.856
  11.780         38.33	     6.782
  11.800         45.00	     7.348
  11.820         41.67	     7.071
  11.840         48.33	     7.616
  11.860         49.17	     7.681
  11.880         54.17	     8.062
  11.900         35.00	     6.481
  11.920         40.00	     6.928
  11.940         47.50	     7.550
  11.960         45.83	     7.416
  11.980         55.83	     8.185
  12.000         50.83	     7.810
  12.020         52.50	     7.937
  12.040         55.83	     8.185
  12.060         53.33	     8.000
  12.080         56.67	     8.246
  12.100         44.17	     7.280
  12.120         54.17	     8.062
  12.140         81.67	     9.899
  12.160         59.17	     8.426
  12.180         78.33	     9.695
  12.200        100.83	    11.000
  12.220         93.33	    10.583
  12.240        105.00	    11.225
  12.260        131.67	    12.570
  12.280        169.17	    14.248
  12.300        200.00	    15.492
  12.320        199.17	    15.460
  12.340        209.17	    15.843
  12.360        205.00	    15.684
  12.380        221.67	    16.310
