
Filename:
	C:\Program Files\Thermo Electron\WinXRD\Datafiles\F_HERMAN\FIEN\3_2_SEPT_FILTER.raw

File Created:
	February 21, 2019 - 02:43 PM

Specimen Id:
	3.2 SEPT RT

Specimen Name:
	

Specimen Description:
	

Comment:
Scan Type: 2Theta Scan
Start Angle: 1 deg.
Stop Angle: 65 deg.
Num Points: 3201
Step Size: 0.02 deg.
Scan Rate: 1.000000
Scan Mode: Continuous
Wavelength: 1.540562
\Kalpha1: 1.540562	\Kalpha2: 1.544390	\Kbeta: 1.392218

Optics:
		Detector:
			 Type: Fixed Slits
		Tube: 
			 Type: Fixed Slits


Datas:
 Pos [deg]       Rate [CPS]      ESD [-]

Range 1 ---> Iteration 1
   1.000        826.67	    31.496
   1.020        652.50	    27.982
   1.040        568.33	    26.115
   1.060        575.83	    26.287
   1.080        546.67	    25.612
   1.100        435.00	    22.847
   1.120        497.50	    24.434
   1.140        489.17	    24.228
   1.160        498.33	    24.454
   1.180        418.33	    22.405
   1.200        367.50	    21.000
   1.220        403.33	    22.000
   1.240        384.17	    21.471
   1.260        400.00	    21.909
   1.280        483.33	    24.083
   1.300        655.83	    28.054
   1.320        726.67	    29.530
   1.340        762.50	    30.249
   1.360       1120.00	    36.661
   1.380       1158.33	    37.283
   1.400       1294.17	    39.408
   1.420       1340.83	    40.112
   1.440       1231.67	    38.445
   1.460       1277.50	    39.154
   1.480       1227.50	    38.380
   1.500       1202.50	    37.987
   1.520       1117.50	    36.620
   1.540       1191.67	    37.815
   1.560       1103.33	    36.387
   1.580        980.83	    34.307
   1.600        942.50	    33.630
   1.620       1057.50	    35.623
   1.640        914.17	    33.121
   1.660        840.00	    31.749
   1.680        782.50	    30.643
   1.700        763.33	    30.265
   1.720        718.33	    29.360
   1.740        644.17	    27.803
   1.760        643.33	    27.785
   1.780        583.33	    26.458
   1.800        590.83	    26.627
   1.820        504.17	    24.597
   1.840        585.83	    26.514
   1.860        518.33	    24.940
   1.880        480.83	    24.021
   1.900        480.83	    24.021
   1.920        463.33	    23.580
   1.940        475.83	    23.896
   1.960        500.00	    24.495
   1.980        435.83	    22.869
   2.000        440.83	    23.000
   2.020        445.00	    23.108
   2.040        412.50	    22.249
   2.060        421.67	    22.494
   2.080        379.17	    21.331
   2.100        375.83	    21.237
   2.120        402.50	    21.977
   2.140        400.83	    21.932
   2.160        371.67	    21.119
   2.180        394.17	    21.749
   2.200        394.17	    21.749
   2.220        385.00	    21.494
   2.240        352.50	    20.567
   2.260        367.50	    21.000
   2.280        371.67	    21.119
   2.300        334.17	    20.025
   2.320        366.67	    20.976
   2.340        350.83	    20.518
   2.360        323.33	    19.698
   2.380        338.33	    20.149
   2.400        367.50	    21.000
   2.420        352.50	    20.567
   2.440        285.83	    18.520
   2.460        315.83	    19.468
   2.480        315.00	    19.442
   2.500        333.33	    20.000
   2.520        332.50	    19.975
   2.540        286.67	    18.547
   2.560        315.00	    19.442
   2.580        309.17	    19.261
   2.600        304.17	    19.105
   2.620        289.17	    18.628
   2.640        259.17	    17.635
   2.660        283.33	    18.439
   2.680        285.00	    18.493
   2.700        287.50	    18.574
   2.720        250.83	    17.349
   2.740        299.17	    18.947
   2.760        296.67	    18.868
   2.780        290.00	    18.655
   2.800        298.33	    18.921
   2.820        282.50	    18.412
   2.840        260.83	    17.692
   2.860        251.67	    17.378
   2.880        285.00	    18.493
   2.900        275.83	    18.193
   2.920        263.33	    17.776
   2.940        238.33	    16.912
   2.960        276.67	    18.221
   2.980        253.33	    17.436
   3.000        253.33	    17.436
   3.020        227.50	    16.523
   3.040        265.00	    17.833
   3.060        231.67	    16.673
   3.080        248.33	    17.263
   3.100        242.50	    17.059
   3.120        264.17	    17.804
   3.140        240.83	    17.000
   3.160        221.67	    16.310
   3.180        241.67	    17.029
   3.200        211.67	    15.937
   3.220        228.33	    16.553
   3.240        215.00	    16.062
   3.260        253.33	    17.436
   3.280        229.17	    16.583
   3.300        229.17	    16.583
   3.320        227.50	    16.523
   3.340        225.83	    16.462
   3.360        226.67	    16.492
   3.380        223.33	    16.371
   3.400        238.33	    16.912
   3.420        213.33	    16.000
   3.440        216.67	    16.125
   3.460        225.83	    16.462
   3.480        218.33	    16.186
   3.500        184.17	    14.866
   3.520        200.83	    15.524
   3.540        225.00	    16.432
   3.560        180.83	    14.731
   3.580        202.50	    15.588
   3.600        209.17	    15.843
   3.620        225.00	    16.432
   3.640        214.17	    16.031
   3.660        202.50	    15.588
   3.680        194.17	    15.264
   3.700        180.83	    14.731
   3.720        176.67	    14.560
   3.740        219.17	    16.217
   3.760        179.17	    14.663
   3.780        193.33	    15.232
   3.800        186.67	    14.967
   3.820        187.50	    15.000
   3.840        185.83	    14.933
   3.860        200.83	    15.524
   3.880        190.00	    15.100
   3.900        176.67	    14.560
   3.920        189.17	    15.067
   3.940        186.67	    14.967
   3.960        192.50	    15.199
   3.980        177.50	    14.595
   4.000        185.00	    14.900
   4.020        173.33	    14.422
   4.040        196.67	    15.362
   4.060        165.00	    14.071
   4.080        177.50	    14.595
   4.100        180.00	    14.697
   4.120        170.00	    14.283
   4.140        199.17	    15.460
   4.160        174.17	    14.457
   4.180        175.83	    14.526
   4.200        162.50	    13.964
   4.220        179.17	    14.663
   4.240        180.00	    14.697
   4.260        166.67	    14.142
   4.280        171.67	    14.353
   4.300        172.50	    14.387
   4.320        159.17	    13.820
   4.340        166.67	    14.142
   4.360        167.50	    14.177
   4.380        174.17	    14.457
   4.400        144.17	    13.153
   4.420        160.00	    13.856
   4.440        154.17	    13.601
   4.460        154.17	    13.601
   4.480        173.33	    14.422
   4.500        165.00	    14.071
   4.520        150.00	    13.416
   4.540        178.33	    14.629
   4.560        171.67	    14.353
   4.580        147.50	    13.304
   4.600        148.33	    13.342
   4.620        151.67	    13.491
   4.640        136.67	    12.806
   4.660        141.67	    13.038
   4.680        130.83	    12.530
   4.700        156.67	    13.711
   4.720        136.67	    12.806
   4.740        149.17	    13.379
   4.760        158.33	    13.784
   4.780        155.83	    13.675
   4.800        130.83	    12.530
   4.820        134.17	    12.689
   4.840        145.83	    13.229
   4.860        158.33	    13.784
   4.880        135.83	    12.767
   4.900        127.50	    12.369
   4.920        151.67	    13.491
   4.940        135.83	    12.767
   4.960        145.00	    13.191
   4.980        133.33	    12.649
   5.000        144.17	    13.153
   5.020        132.50	    12.610
   5.040        155.83	    13.675
   5.060        149.17	    13.379
   5.080        130.83	    12.530
   5.100        140.00	    12.961
   5.120        133.33	    12.649
   5.140        160.00	    13.856
   5.160        140.00	    12.961
   5.180        151.67	    13.491
   5.200        126.67	    12.329
   5.220        127.50	    12.369
   5.240        139.17	    12.923
   5.260        148.33	    13.342
   5.280        124.17	    12.207
   5.300        135.00	    12.728
   5.320        140.00	    12.961
   5.340        133.33	    12.649
   5.360        125.83	    12.288
   5.380        130.83	    12.530
   5.400        137.50	    12.845
   5.420        125.83	    12.288
   5.440        109.17	    11.446
   5.460        137.50	    12.845
   5.480        121.67	    12.083
   5.500        126.67	    12.329
   5.520        125.00	    12.247
   5.540        125.83	    12.288
   5.560        125.00	    12.247
   5.580        118.33	    11.916
   5.600        135.00	    12.728
   5.620        142.50	    13.077
   5.640        116.67	    11.832
   5.660        124.17	    12.207
   5.680        114.17	    11.705
   5.700        120.83	    12.042
   5.720        134.17	    12.689
   5.740        118.33	    11.916
   5.760        113.33	    11.662
   5.780        130.00	    12.490
   5.800        145.00	    13.191
   5.820        130.83	    12.530
   5.840        113.33	    11.662
   5.860        121.67	    12.083
   5.880        118.33	    11.916
   5.900        139.17	    12.923
   5.920        129.17	    12.450
   5.940        149.17	    13.379
   5.960        110.83	    11.533
   5.980        141.67	    13.038
   6.000        130.83	    12.530
   6.020        150.00	    13.416
   6.040        129.17	    12.450
   6.060        154.17	    13.601
   6.080        137.50	    12.845
   6.100        156.67	    13.711
   6.120        176.67	    14.560
   6.140        178.33	    14.629
   6.160        184.17	    14.866
   6.180        190.83	    15.133
   6.200        196.67	    15.362
   6.220        200.83	    15.524
   6.240        171.67	    14.353
   6.260        220.00	    16.248
   6.280        180.00	    14.697
   6.300        164.17	    14.036
   6.320        160.83	    13.892
   6.340        140.83	    13.000
   6.360        162.50	    13.964
   6.380        154.17	    13.601
   6.400        139.17	    12.923
   6.420        135.00	    12.728
   6.440        140.83	    13.000
   6.460         96.67	    10.770
   6.480        138.33	    12.884
   6.500        159.17	    13.820
   6.520        139.17	    12.923
   6.540        121.67	    12.083
   6.560        118.33	    11.916
   6.580        132.50	    12.610
   6.600        130.00	    12.490
   6.620        101.67	    11.045
   6.640        105.83	    11.269
   6.660        125.83	    12.288
   6.680        100.00	    10.954
   6.700        123.33	    12.166
   6.720        106.67	    11.314
   6.740        115.83	    11.790
   6.760         85.83	    10.149
   6.780        104.17	    11.180
   6.800        102.50	    11.091
   6.820         96.67	    10.770
   6.840         97.50	    10.817
   6.860        123.33	    12.166
   6.880        114.17	    11.705
   6.900        114.17	    11.705
   6.920        110.83	    11.533
   6.940        120.83	    12.042
   6.960         92.50	    10.536
   6.980         94.17	    10.630
   7.000        112.50	    11.619
   7.020         86.67	    10.198
   7.040         96.67	    10.770
   7.060        104.17	    11.180
   7.080         92.50	    10.536
   7.100        115.83	    11.790
   7.120         91.67	    10.488
   7.140         95.83	    10.724
   7.160        105.83	    11.269
   7.180         84.17	    10.050
   7.200         96.67	    10.770
   7.220        108.33	    11.402
   7.240         80.00	     9.798
   7.260         81.67	     9.899
   7.280        100.00	    10.954
   7.300        106.67	    11.314
   7.320         97.50	    10.817
   7.340        111.67	    11.576
   7.360         91.67	    10.488
   7.380         91.67	    10.488
   7.400        101.67	    11.045
   7.420        103.33	    11.136
   7.440         94.17	    10.630
   7.460         93.33	    10.583
   7.480         88.33	    10.296
   7.500         92.50	    10.536
   7.520         94.17	    10.630
   7.540         92.50	    10.536
   7.560         96.67	    10.770
   7.580         95.00	    10.677
   7.600        104.17	    11.180
   7.620         95.83	    10.724
   7.640         98.33	    10.863
   7.660         92.50	    10.536
   7.680        104.17	    11.180
   7.700         87.50	    10.247
   7.720         95.83	    10.724
   7.740         93.33	    10.583
   7.760         92.50	    10.536
   7.780        101.67	    11.045
   7.800         86.67	    10.198
   7.820         92.50	    10.536
   7.840        104.17	    11.180
   7.860         90.00	    10.392
   7.880         84.17	    10.050
   7.900         80.00	     9.798
   7.920         89.17	    10.344
   7.940         98.33	    10.863
   7.960        101.67	    11.045
   7.980         90.83	    10.440
   8.000         94.17	    10.630
   8.020         95.83	    10.724
   8.040         85.83	    10.149
   8.060         83.33	    10.000
   8.080         91.67	    10.488
   8.100         90.83	    10.440
   8.120         89.17	    10.344
   8.140         77.50	     9.644
   8.160         95.83	    10.724
   8.180         93.33	    10.583
   8.200         69.17	     9.110
   8.220         95.00	    10.677
   8.240         81.67	     9.899
   8.260         79.17	     9.747
   8.280        101.67	    11.045
   8.300         91.67	    10.488
   8.320         98.33	    10.863
   8.340         80.83	     9.849
   8.360        103.33	    11.136
   8.380         93.33	    10.583
   8.400         84.17	    10.050
   8.420         87.50	    10.247
   8.440         94.17	    10.630
   8.460         83.33	    10.000
   8.480         83.33	    10.000
   8.500         92.50	    10.536
   8.520         91.67	    10.488
   8.540        109.17	    11.446
   8.560        100.83	    11.000
   8.580         89.17	    10.344
   8.600         89.17	    10.344
   8.620         96.67	    10.770
   8.640         95.83	    10.724
   8.660         99.17	    10.909
   8.680         96.67	    10.770
   8.700        112.50	    11.619
   8.720        130.83	    12.530
   8.740        124.17	    12.207
   8.760        120.00	    12.000
   8.780        144.17	    13.153
   8.800        177.50	    14.595
   8.820        255.83	    17.521
   8.840        291.67	    18.708
   8.860        292.50	    18.735
   8.880        230.83	    16.643
   8.900        205.83	    15.716
   8.920        158.33	    13.784
   8.940        147.50	    13.304
   8.960        110.00	    11.489
   8.980         98.33	    10.863
   9.000        107.50	    11.358
   9.020        100.83	    11.000
   9.040         89.17	    10.344
   9.060         90.00	    10.392
   9.080         81.67	     9.899
   9.100         93.33	    10.583
   9.120         89.17	    10.344
   9.140         82.50	     9.950
   9.160         88.33	    10.296
   9.180         81.67	     9.899
   9.200         80.00	     9.798
   9.220         89.17	    10.344
   9.240         96.67	    10.770
   9.260         82.50	     9.950
   9.280         92.50	    10.536
   9.300         75.00	     9.487
   9.320         77.50	     9.644
   9.340         93.33	    10.583
   9.360         75.00	     9.487
   9.380         75.83	     9.539
   9.400         85.83	    10.149
   9.420         81.67	     9.899
   9.440         82.50	     9.950
   9.460         84.17	    10.050
   9.480        101.67	    11.045
   9.500         90.00	    10.392
   9.520         72.50	     9.327
   9.540         80.83	     9.849
   9.560         72.50	     9.327
   9.580         89.17	    10.344
   9.600         79.17	     9.747
   9.620         65.00	     8.832
   9.640         77.50	     9.644
   9.660         70.00	     9.165
   9.680         70.83	     9.220
   9.700         75.83	     9.539
   9.720         68.33	     9.055
   9.740         74.17	     9.434
   9.760         76.67	     9.592
   9.780         81.67	     9.899
   9.800         73.33	     9.381
   9.820         62.50	     8.660
   9.840         79.17	     9.747
   9.860         83.33	    10.000
   9.880         81.67	     9.899
   9.900         74.17	     9.434
   9.920         85.00	    10.100
   9.940         78.33	     9.695
   9.960         59.17	     8.426
   9.980         71.67	     9.274
  10.000         83.33	    10.000
  10.020         65.00	     8.832
  10.040         80.00	     9.798
  10.060         78.33	     9.695
  10.080         80.83	     9.849
  10.100         78.33	     9.695
  10.120         81.67	     9.899
  10.140         64.17	     8.775
  10.160         66.67	     8.944
  10.180         61.67	     8.602
  10.200         72.50	     9.327
  10.220         55.00	     8.124
  10.240         71.67	     9.274
  10.260         71.67	     9.274
  10.280         73.33	     9.381
  10.300         83.33	    10.000
  10.320         84.17	    10.050
  10.340         64.17	     8.775
  10.360         67.50	     9.000
  10.380         80.00	     9.798
  10.400         89.17	    10.344
  10.420         89.17	    10.344
  10.440         72.50	     9.327
  10.460         64.17	     8.775
  10.480         81.67	     9.899
  10.500         69.17	     9.110
  10.520         79.17	     9.747
  10.540         63.33	     8.718
  10.560         76.67	     9.592
  10.580         81.67	     9.899
  10.600         76.67	     9.592
  10.620         80.00	     9.798
  10.640         59.17	     8.426
  10.660         80.83	     9.849
  10.680         64.17	     8.775
  10.700         77.50	     9.644
  10.720         72.50	     9.327
  10.740         75.83	     9.539
  10.760         81.67	     9.899
  10.780         66.67	     8.944
  10.800         67.50	     9.000
  10.820         66.67	     8.944
  10.840         60.00	     8.485
  10.860         63.33	     8.718
  10.880         69.17	     9.110
  10.900         60.83	     8.544
  10.920         69.17	     9.110
  10.940         65.00	     8.832
  10.960         72.50	     9.327
  10.980         80.83	     9.849
  11.000         61.67	     8.602
  11.020         63.33	     8.718
  11.040         60.83	     8.544
  11.060         71.67	     9.274
  11.080         65.00	     8.832
  11.100         66.67	     8.944
  11.120         61.67	     8.602
  11.140         80.00	     9.798
  11.160         59.17	     8.426
  11.180         65.00	     8.832
  11.200         64.17	     8.775
  11.220         64.17	     8.775
  11.240         73.33	     9.381
  11.260         62.50	     8.660
  11.280         87.50	    10.247
  11.300         71.67	     9.274
  11.320         74.17	     9.434
  11.340         82.50	     9.950
  11.360         85.83	    10.149
  11.380         73.33	     9.381
  11.400         68.33	     9.055
  11.420         76.67	     9.592
  11.440         70.83	     9.220
  11.460         64.17	     8.775
  11.480         80.00	     9.798
  11.500         74.17	     9.434
  11.520         80.00	     9.798
  11.540         80.83	     9.849
  11.560         65.83	     8.888
  11.580         70.83	     9.220
  11.600         70.83	     9.220
  11.620         79.17	     9.747
  11.640         52.50	     7.937
  11.660         68.33	     9.055
  11.680         60.83	     8.544
  11.700         69.17	     9.110
  11.720         69.17	     9.110
  11.740         65.00	     8.832
  11.760         55.83	     8.185
  11.780         71.67	     9.274
  11.800         67.50	     9.000
  11.820         78.33	     9.695
  11.840         68.33	     9.055
  11.860         68.33	     9.055
  11.880         69.17	     9.110
  11.900         68.33	     9.055
  11.920         69.17	     9.110
  11.940         60.83	     8.544
  11.960         70.83	     9.220
  11.980        105.00	    11.225
  12.000         72.50	     9.327
  12.020         81.67	     9.899
  12.040         88.33	    10.296
  12.060         77.50	     9.644
  12.080         97.50	    10.817
  12.100        115.00	    11.747
  12.120        110.83	    11.533
  12.140        146.67	    13.266
  12.160        135.83	    12.767
  12.180        145.83	    13.229
  12.200        140.83	    13.000
  12.220        138.33	    12.884
  12.240        132.50	    12.610
  12.260        100.83	    11.000
  12.280        115.00	    11.747
  12.300        101.67	    11.045
  12.320         91.67	    10.488
  12.340         99.17	    10.909
  12.360        110.00	    11.489
  12.380        124.17	    12.207
