
Filename:
	C:\Program Files\Thermo Electron\WinXRD\Datafiles\F_HERMAN\FIEN\4_1_AUG_P_RT.raw

File Created:
	January 24, 2019 - 12:54 PM

Specimen Id:
	4.1 AUG P FT

Specimen Name:
	

Specimen Description:
	

Comment:
Scan Type: 2Theta Scan
Start Angle: 1 deg.
Stop Angle: 65 deg.
Num Points: 3201
Step Size: 0.02 deg.
Scan Rate: 1.000000
Scan Mode: Continuous
Wavelength: 1.540562
\Kalpha1: 1.540562	\Kalpha2: 1.544390	\Kbeta: 1.392218

Optics:
		Detector:
			 Type: Fixed Slits
		Tube: 
			 Type: Fixed Slits


Datas:
 Pos [deg]       Rate [CPS]      ESD [-]

Range 1 ---> Iteration 1
   1.000       1040.00	    35.327
   1.020        806.67	    31.113
   1.040        623.33	    27.350
   1.060        516.67	    24.900
   1.080        565.00	    26.038
   1.100        600.00	    26.833
   1.120        525.00	    25.100
   1.140        493.33	    24.331
   1.160        420.83	    22.472
   1.180        402.50	    21.977
   1.200        412.50	    22.249
   1.220        425.83	    22.605
   1.240        373.33	    21.166
   1.260        392.50	    21.703
   1.280        498.33	    24.454
   1.300        545.83	    25.593
   1.320        764.17	    30.282
   1.340        834.17	    31.639
   1.360        969.17	    34.103
   1.380       1345.83	    40.187
   1.400       1335.83	    40.037
   1.420       1400.83	    41.000
   1.440       1370.00	    40.546
   1.460       1330.83	    39.962
   1.480       1240.83	    38.588
   1.500       1209.17	    38.092
   1.520       1235.00	    38.497
   1.540       1210.83	    38.118
   1.560       1070.00	    35.833
   1.580       1091.67	    36.194
   1.600       1120.00	    36.661
   1.620       1006.67	    34.756
   1.640        953.33	    33.823
   1.660        893.33	    32.741
   1.680        803.33	    31.048
   1.700        794.17	    30.871
   1.720        763.33	    30.265
   1.740        702.50	    29.034
   1.760        647.50	    27.875
   1.780        634.17	    27.586
   1.800        585.00	    26.495
   1.820        574.17	    26.249
   1.840        530.83	    25.239
   1.860        499.17	    24.474
   1.880        525.83	    25.120
   1.900        504.17	    24.597
   1.920        488.33	    24.207
   1.940        445.83	    23.130
   1.960        462.50	    23.558
   1.980        463.33	    23.580
   2.000        425.00	    22.583
   2.020        417.50	    22.383
   2.040        452.50	    23.302
   2.060        445.83	    23.130
   2.080        425.83	    22.605
   2.100        383.33	    21.448
   2.120        436.67	    22.891
   2.140        422.50	    22.517
   2.160        394.17	    21.749
   2.180        400.00	    21.909
   2.200        415.00	    22.316
   2.220        361.67	    20.833
   2.240        393.33	    21.726
   2.260        360.83	    20.809
   2.280        354.17	    20.616
   2.300        346.67	    20.396
   2.320        351.67	    20.543
   2.340        323.33	    19.698
   2.360        355.83	    20.664
   2.380        361.67	    20.833
   2.400        330.00	    19.900
   2.420        335.00	    20.050
   2.440        343.33	    20.298
   2.460        330.00	    19.900
   2.480        306.67	    19.183
   2.500        320.00	    19.596
   2.520        324.17	    19.723
   2.540        309.17	    19.261
   2.560        284.17	    18.466
   2.580        266.67	    17.889
   2.600        306.67	    19.183
   2.620        308.33	    19.235
   2.640        297.50	    18.894
   2.660        301.67	    19.026
   2.680        290.00	    18.655
   2.700        277.50	    18.248
   2.720        285.83	    18.520
   2.740        279.17	    18.303
   2.760        282.50	    18.412
   2.780        280.00	    18.330
   2.800        280.00	    18.330
   2.820        286.67	    18.547
   2.840        275.83	    18.193
   2.860        266.67	    17.889
   2.880        253.33	    17.436
   2.900        281.67	    18.385
   2.920        271.67	    18.055
   2.940        246.67	    17.205
   2.960        264.17	    17.804
   2.980        261.67	    17.720
   3.000        277.50	    18.248
   3.020        231.67	    16.673
   3.040        260.83	    17.692
   3.060        244.17	    17.117
   3.080        250.83	    17.349
   3.100        256.67	    17.550
   3.120        244.17	    17.117
   3.140        236.67	    16.852
   3.160        241.67	    17.029
   3.180        237.50	    16.882
   3.200        267.50	    17.916
   3.220        224.17	    16.401
   3.240        259.17	    17.635
   3.260        215.83	    16.093
   3.280        220.83	    16.279
   3.300        235.83	    16.823
   3.320        233.33	    16.733
   3.340        207.50	    15.780
   3.360        230.83	    16.643
   3.380        227.50	    16.523
   3.400        222.50	    16.340
   3.420        225.00	    16.432
   3.440        206.67	    15.748
   3.460        216.67	    16.125
   3.480        204.17	    15.652
   3.500        220.00	    16.248
   3.520        234.17	    16.763
   3.540        224.17	    16.401
   3.560        196.67	    15.362
   3.580        229.17	    16.583
   3.600        226.67	    16.492
   3.620        210.00	    15.875
   3.640        232.50	    16.703
   3.660        207.50	    15.780
   3.680        204.17	    15.652
   3.700        210.83	    15.906
   3.720        222.50	    16.340
   3.740        216.67	    16.125
   3.760        202.50	    15.588
   3.780        213.33	    16.000
   3.800        180.83	    14.731
   3.820        202.50	    15.588
   3.840        204.17	    15.652
   3.860        178.33	    14.629
   3.880        185.00	    14.900
   3.900        173.33	    14.422
   3.920        196.67	    15.362
   3.940        188.33	    15.033
   3.960        187.50	    15.000
   3.980        174.17	    14.457
   4.000        190.00	    15.100
   4.020        189.17	    15.067
   4.040        199.17	    15.460
   4.060        160.00	    13.856
   4.080        156.67	    13.711
   4.100        180.83	    14.731
   4.120        166.67	    14.142
   4.140        169.17	    14.248
   4.160        195.00	    15.297
   4.180        160.00	    13.856
   4.200        173.33	    14.422
   4.220        174.17	    14.457
   4.240        206.67	    15.748
   4.260        172.50	    14.387
   4.280        179.17	    14.663
   4.300        172.50	    14.387
   4.320        161.67	    13.928
   4.340        167.50	    14.177
   4.360        173.33	    14.422
   4.380        150.00	    13.416
   4.400        154.17	    13.601
   4.420        155.83	    13.675
   4.440        176.67	    14.560
   4.460        177.50	    14.595
   4.480        147.50	    13.304
   4.500        155.83	    13.675
   4.520        160.00	    13.856
   4.540        180.83	    14.731
   4.560        165.00	    14.071
   4.580        162.50	    13.964
   4.600        158.33	    13.784
   4.620        157.50	    13.748
   4.640        149.17	    13.379
   4.660        163.33	    14.000
   4.680        140.00	    12.961
   4.700        180.00	    14.697
   4.720        151.67	    13.491
   4.740        160.00	    13.856
   4.760        134.17	    12.689
   4.780        154.17	    13.601
   4.800        175.83	    14.526
   4.820        149.17	    13.379
   4.840        149.17	    13.379
   4.860        163.33	    14.000
   4.880        130.00	    12.490
   4.900        147.50	    13.304
   4.920        153.33	    13.565
   4.940        160.83	    13.892
   4.960        141.67	    13.038
   4.980        152.50	    13.528
   5.000        144.17	    13.153
   5.020        139.17	    12.923
   5.040        155.83	    13.675
   5.060        164.17	    14.036
   5.080        144.17	    13.153
   5.100        137.50	    12.845
   5.120        130.00	    12.490
   5.140        116.67	    11.832
   5.160        132.50	    12.610
   5.180        140.83	    13.000
   5.200        151.67	    13.491
   5.220        129.17	    12.450
   5.240        125.83	    12.288
   5.260        160.00	    13.856
   5.280        141.67	    13.038
   5.300        130.00	    12.490
   5.320        125.00	    12.247
   5.340        149.17	    13.379
   5.360        138.33	    12.884
   5.380        147.50	    13.304
   5.400        138.33	    12.884
   5.420        122.50	    12.124
   5.440        142.50	    13.077
   5.460        116.67	    11.832
   5.480        134.17	    12.689
   5.500        127.50	    12.369
   5.520        144.17	    13.153
   5.540        147.50	    13.304
   5.560        136.67	    12.806
   5.580        138.33	    12.884
   5.600        137.50	    12.845
   5.620        113.33	    11.662
   5.640        133.33	    12.649
   5.660        135.00	    12.728
   5.680        130.00	    12.490
   5.700        132.50	    12.610
   5.720        119.17	    11.958
   5.740        111.67	    11.576
   5.760        120.00	    12.000
   5.780        133.33	    12.649
   5.800        126.67	    12.329
   5.820        109.17	    11.446
   5.840        120.00	    12.000
   5.860        140.00	    12.961
   5.880        141.67	    13.038
   5.900        119.17	    11.958
   5.920        125.83	    12.288
   5.940        148.33	    13.342
   5.960        116.67	    11.832
   5.980        115.00	    11.747
   6.000        135.83	    12.767
   6.020        135.00	    12.728
   6.040        129.17	    12.450
   6.060        120.00	    12.000
   6.080        136.67	    12.806
   6.100        121.67	    12.083
   6.120        123.33	    12.166
   6.140        130.00	    12.490
   6.160        145.00	    13.191
   6.180        139.17	    12.923
   6.200        155.83	    13.675
   6.220        159.17	    13.820
   6.240        147.50	    13.304
   6.260        142.50	    13.077
   6.280        108.33	    11.402
   6.300        135.00	    12.728
   6.320        120.83	    12.042
   6.340        111.67	    11.576
   6.360        107.50	    11.358
   6.380        114.17	    11.705
   6.400         99.17	    10.909
   6.420        110.83	    11.533
   6.440        119.17	    11.958
   6.460        121.67	    12.083
   6.480        112.50	    11.619
   6.500        117.50	    11.874
   6.520        115.00	    11.747
   6.540        103.33	    11.136
   6.560        125.00	    12.247
   6.580        108.33	    11.402
   6.600        125.00	    12.247
   6.620        108.33	    11.402
   6.640        114.17	    11.705
   6.660        112.50	    11.619
   6.680        105.83	    11.269
   6.700        112.50	    11.619
   6.720        112.50	    11.619
   6.740         97.50	    10.817
   6.760        107.50	    11.358
   6.780        105.83	    11.269
   6.800        119.17	    11.958
   6.820         94.17	    10.630
   6.840        101.67	    11.045
   6.860        100.00	    10.954
   6.880         86.67	    10.198
   6.900        113.33	    11.662
   6.920        115.83	    11.790
   6.940        112.50	    11.619
   6.960        111.67	    11.576
   6.980        111.67	    11.576
   7.000        108.33	    11.402
   7.020        131.67	    12.570
   7.040         92.50	    10.536
   7.060        114.17	    11.705
   7.080         85.00	    10.100
   7.100        109.17	    11.446
   7.120        115.83	    11.790
   7.140        103.33	    11.136
   7.160        105.83	    11.269
   7.180         95.83	    10.724
   7.200        104.17	    11.180
   7.220         97.50	    10.817
   7.240         97.50	    10.817
   7.260         97.50	    10.817
   7.280         87.50	    10.247
   7.300        109.17	    11.446
   7.320        112.50	    11.619
   7.340        108.33	    11.402
   7.360         94.17	    10.630
   7.380         90.00	    10.392
   7.400         95.00	    10.677
   7.420         98.33	    10.863
   7.440        104.17	    11.180
   7.460        107.50	    11.358
   7.480        118.33	    11.916
   7.500         99.17	    10.909
   7.520         97.50	    10.817
   7.540         77.50	     9.644
   7.560         93.33	    10.583
   7.580         95.83	    10.724
   7.600        113.33	    11.662
   7.620        116.67	    11.832
   7.640        112.50	    11.619
   7.660        112.50	    11.619
   7.680        103.33	    11.136
   7.700         99.17	    10.909
   7.720         95.00	    10.677
   7.740         92.50	    10.536
   7.760         95.83	    10.724
   7.780        101.67	    11.045
   7.800        115.83	    11.790
   7.820        105.00	    11.225
   7.840         83.33	    10.000
   7.860        100.00	    10.954
   7.880        100.00	    10.954
   7.900         91.67	    10.488
   7.920         93.33	    10.583
   7.940        101.67	    11.045
   7.960         98.33	    10.863
   7.980         97.50	    10.817
   8.000         80.83	     9.849
   8.020         95.83	    10.724
   8.040         95.00	    10.677
   8.060        102.50	    11.091
   8.080         88.33	    10.296
   8.100         94.17	    10.630
   8.120         88.33	    10.296
   8.140         94.17	    10.630
   8.160         99.17	    10.909
   8.180         90.00	    10.392
   8.200         87.50	    10.247
   8.220         87.50	    10.247
   8.240         85.00	    10.100
   8.260         95.00	    10.677
   8.280        104.17	    11.180
   8.300        106.67	    11.314
   8.320         91.67	    10.488
   8.340         91.67	    10.488
   8.360         85.00	    10.100
   8.380         88.33	    10.296
   8.400        105.00	    11.225
   8.420        100.00	    10.954
   8.440         86.67	    10.198
   8.460         87.50	    10.247
   8.480         95.00	    10.677
   8.500         98.33	    10.863
   8.520        112.50	    11.619
   8.540        112.50	    11.619
   8.560        100.00	    10.954
   8.580         85.00	    10.100
   8.600        100.83	    11.000
   8.620        105.00	    11.225
   8.640        104.17	    11.180
   8.660        114.17	    11.705
   8.680        109.17	    11.446
   8.700         99.17	    10.909
   8.720        110.00	    11.489
   8.740        113.33	    11.662
   8.760        145.83	    13.229
   8.780        145.83	    13.229
   8.800        136.67	    12.806
   8.820        167.50	    14.177
   8.840        285.83	    18.520
   8.860        434.17	    22.825
   8.880        505.00	    24.617
   8.900        367.50	    21.000
   8.920        205.00	    15.684
   8.940        143.33	    13.115
   8.960        110.00	    11.489
   8.980        105.83	    11.269
   9.000        104.17	    11.180
   9.020        101.67	    11.045
   9.040        110.83	    11.533
   9.060        109.17	    11.446
   9.080        106.67	    11.314
   9.100         90.83	    10.440
   9.120         95.00	    10.677
   9.140         88.33	    10.296
   9.160         93.33	    10.583
   9.180         95.00	    10.677
   9.200         95.00	    10.677
   9.220         81.67	     9.899
   9.240         87.50	    10.247
   9.260         85.83	    10.149
   9.280         96.67	    10.770
   9.300         92.50	    10.536
   9.320         83.33	    10.000
   9.340         87.50	    10.247
   9.360         94.17	    10.630
   9.380         95.00	    10.677
   9.400        116.67	    11.832
   9.420         84.17	    10.050
   9.440        104.17	    11.180
   9.460         94.17	    10.630
   9.480         84.17	    10.050
   9.500         84.17	    10.050
   9.520         76.67	     9.592
   9.540         80.00	     9.798
   9.560         78.33	     9.695
   9.580        115.83	    11.790
   9.600         94.17	    10.630
   9.620         85.00	    10.100
   9.640         73.33	     9.381
   9.660         80.00	     9.798
   9.680         98.33	    10.863
   9.700         85.83	    10.149
   9.720        105.83	    11.269
   9.740         89.17	    10.344
   9.760         83.33	    10.000
   9.780         75.00	     9.487
   9.800         85.00	    10.100
   9.820         84.17	    10.050
   9.840         81.67	     9.899
   9.860         83.33	    10.000
   9.880         90.00	    10.392
   9.900         75.83	     9.539
   9.920         92.50	    10.536
   9.940         80.00	     9.798
   9.960         88.33	    10.296
   9.980         80.00	     9.798
  10.000         86.67	    10.198
  10.020         64.17	     8.775
  10.040         89.17	    10.344
  10.060         86.67	    10.198
  10.080         89.17	    10.344
  10.100         73.33	     9.381
  10.120         81.67	     9.899
  10.140         78.33	     9.695
  10.160         89.17	    10.344
  10.180         78.33	     9.695
  10.200         88.33	    10.296
  10.220         82.50	     9.950
  10.240         82.50	     9.950
  10.260         83.33	    10.000
  10.280         92.50	    10.536
  10.300         94.17	    10.630
  10.320         81.67	     9.899
  10.340         75.83	     9.539
  10.360         80.00	     9.798
  10.380         80.83	     9.849
  10.400        100.83	    11.000
  10.420        108.33	    11.402
  10.440        162.50	    13.964
  10.460        259.17	    17.635
  10.480        306.67	    19.183
  10.500        273.33	    18.111
  10.520        165.83	    14.107
  10.540        118.33	    11.916
  10.560         91.67	    10.488
  10.580         80.00	     9.798
  10.600         97.50	    10.817
  10.620         88.33	    10.296
  10.640         71.67	     9.274
  10.660         80.83	     9.849
  10.680         80.00	     9.798
  10.700         85.83	    10.149
  10.720         82.50	     9.950
  10.740         69.17	     9.110
  10.760         90.83	    10.440
  10.780         90.83	    10.440
  10.800         68.33	     9.055
  10.820         75.83	     9.539
  10.840         85.00	    10.100
  10.860         77.50	     9.644
  10.880         73.33	     9.381
  10.900         92.50	    10.536
  10.920         83.33	    10.000
  10.940         83.33	    10.000
  10.960         81.67	     9.899
  10.980         84.17	    10.050
  11.000         94.17	    10.630
  11.020         85.83	    10.149
  11.040         97.50	    10.817
  11.060         72.50	     9.327
  11.080         64.17	     8.775
  11.100         85.00	    10.100
  11.120         75.00	     9.487
  11.140         72.50	     9.327
  11.160         71.67	     9.274
  11.180         76.67	     9.592
  11.200         70.00	     9.165
  11.220         88.33	    10.296
  11.240         65.00	     8.832
  11.260         73.33	     9.381
  11.280         93.33	    10.583
  11.300         85.83	    10.149
  11.320         83.33	    10.000
  11.340         76.67	     9.592
  11.360         92.50	    10.536
  11.380         65.00	     8.832
  11.400         78.33	     9.695
  11.420         81.67	     9.899
  11.440         77.50	     9.644
  11.460         80.00	     9.798
  11.480         89.17	    10.344
  11.500         70.00	     9.165
  11.520         80.83	     9.849
  11.540         75.00	     9.487
  11.560         67.50	     9.000
  11.580         75.83	     9.539
  11.600         94.17	    10.630
  11.620         87.50	    10.247
  11.640         78.33	     9.695
  11.660         70.83	     9.220
  11.680         75.00	     9.487
  11.700         80.00	     9.798
  11.720         68.33	     9.055
  11.740         83.33	    10.000
  11.760         77.50	     9.644
  11.780         84.17	    10.050
  11.800         76.67	     9.592
  11.820         80.00	     9.798
  11.840         87.50	    10.247
  11.860         88.33	    10.296
  11.880         74.17	     9.434
  11.900         85.00	    10.100
  11.920         70.83	     9.220
  11.940         87.50	    10.247
  11.960         83.33	    10.000
  11.980         66.67	     8.944
  12.000         70.83	     9.220
  12.020         72.50	     9.327
  12.040         60.00	     8.485
  12.060         90.83	    10.440
  12.080         98.33	    10.863
  12.100         83.33	    10.000
  12.120        103.33	    11.136
  12.140        114.17	    11.705
  12.160        126.67	    12.329
  12.180        134.17	    12.689
  12.200        115.00	    11.747
  12.220        110.83	    11.533
  12.240         94.17	    10.630
  12.260         95.00	    10.677
  12.280        100.83	    11.000
  12.300        103.33	    11.136
  12.320        113.33	    11.662
  12.340        123.33	    12.166
  12.360         99.17	    10.909
  12.380         87.50	    10.247
