
Filename:
	C:\Program Files\Thermo Electron\WinXRD\Datafiles\F_HERMAN\FIEN\4_22_FT.raw

File Created:
	October 01, 2019 - 03:08 PM

Specimen Id:
	4.22 FILTRE RT

Specimen Name:
	

Specimen Description:
	

Comment:
Scan Type: 2Theta Scan
Start Angle: 1 deg.
Stop Angle: 65 deg.
Num Points: 3201
Step Size: 0.02 deg.
Scan Rate: 1.000000
Scan Mode: Continuous
Wavelength: 1.540562
\Kalpha1: 1.540562	\Kalpha2: 1.544390	\Kbeta: 1.392218

Optics:
		Detector:
			 Type: Fixed Slits
		Tube: 
			 Type: Fixed Slits


Datas:
 Pos [deg]       Rate [CPS]      ESD [-]

Range 1 ---> Iteration 1
   1.000          0.00	     0.000
   1.020          0.00	     0.000
   1.040          0.00	     0.000
   1.060          0.00	     0.000
   1.080          0.00	     0.000
   1.100          0.00	     0.000
   1.120        132.50	    12.610
   1.140        252.50	    17.407
   1.160        405.00	    22.045
   1.180        510.00	    24.739
   1.200        466.67	    23.664
   1.220        176.67	    14.560
   1.240        211.67	    15.937
   1.260        356.67	    20.688
   1.280        336.67	    20.100
   1.300        355.83	    20.664
   1.320        238.33	    16.912
   1.340        399.17	    21.886
   1.360        352.50	    20.567
   1.380        375.00	    21.213
   1.400        630.83	    27.514
   1.420        866.67	    32.249
   1.440       1088.33	    36.139
   1.460       1503.33	    42.474
   1.480       2300.83	    52.545
   1.500       2736.67	    57.306
   1.520       2931.67	    59.313
   1.540       2723.33	    57.166
   1.560       2686.67	    56.780
   1.580       2691.67	    56.833
   1.600       2500.83	    54.781
   1.620       2311.67	    52.669
   1.640       2571.67	    55.552
   1.660       2509.17	    54.873
   1.680       2357.50	    53.188
   1.700       2400.00	    53.666
   1.720       2384.17	    53.488
   1.740       2394.17	    53.600
   1.760       2200.83	    51.391
   1.780       2132.50	    50.587
   1.800       2014.17	    49.163
   1.820       1887.50	    47.592
   1.840       1680.00	    44.900
   1.860       1513.33	    42.615
   1.880       1400.83	    41.000
   1.900       1287.50	    39.306
   1.920       1125.00	    36.742
   1.940       1034.17	    35.228
   1.960        910.83	    33.061
   1.980        829.17	    31.544
   2.000        792.50	    30.838
   2.020        857.50	    32.078
   2.040        819.17	    31.353
   2.060        786.67	    30.725
   2.080        795.83	    30.903
   2.100        772.50	    30.447
   2.120        770.83	    30.414
   2.140        765.83	    30.315
   2.160        712.50	    29.240
   2.180        740.83	    29.816
   2.200        685.83	    28.688
   2.220        711.67	    29.223
   2.240        721.67	    29.428
   2.260        715.83	    29.309
   2.280        705.00	    29.086
   2.300        667.50	    28.302
   2.320        695.83	    28.896
   2.340        678.33	    28.531
   2.360        693.33	    28.844
   2.380        661.67	    28.178
   2.400        668.33	    28.320
   2.420        590.00	    26.608
   2.440        695.00	    28.879
   2.460        654.17	    28.018
   2.480        650.83	    27.946
   2.500        604.17	    26.926
   2.520        579.17	    26.363
   2.540        587.50	    26.552
   2.560        588.33	    26.571
   2.580        578.33	    26.344
   2.600        545.83	    25.593
   2.620        575.83	    26.287
   2.640        567.50	    26.096
   2.660        535.00	    25.338
   2.680        619.17	    27.258
   2.700        590.00	    26.608
   2.720        570.00	    26.153
   2.740        519.17	    24.960
   2.760        523.33	    25.060
   2.780        537.50	    25.397
   2.800        581.67	    26.420
   2.820        544.17	    25.554
   2.840        528.33	    25.179
   2.860        545.83	    25.593
   2.880        503.33	    24.576
   2.900        512.50	    24.799
   2.920        511.67	    24.779
   2.940        496.67	    24.413
   2.960        468.33	    23.707
   2.980        476.67	    23.917
   3.000        505.83	    24.637
   3.020        508.33	    24.698
   3.040        515.83	    24.880
   3.060        442.50	    23.043
   3.080        455.00	    23.367
   3.100        457.50	    23.431
   3.120        471.67	    23.791
   3.140        470.00	    23.749
   3.160        449.17	    23.216
   3.180        412.50	    22.249
   3.200        445.00	    23.108
   3.220        440.00	    22.978
   3.240        427.50	    22.650
   3.260        456.67	    23.409
   3.280        431.67	    22.760
   3.300        449.17	    23.216
   3.320        425.00	    22.583
   3.340        435.83	    22.869
   3.360        434.17	    22.825
   3.380        420.00	    22.450
   3.400        410.83	    22.204
   3.420        405.83	    22.068
   3.440        410.00	    22.181
   3.460        420.83	    22.472
   3.480        415.83	    22.338
   3.500        367.50	    21.000
   3.520        430.00	    22.716
   3.540        408.33	    22.136
   3.560        421.67	    22.494
   3.580        400.83	    21.932
   3.600        413.33	    22.271
   3.620        396.67	    21.817
   3.640        420.83	    22.472
   3.660        389.17	    21.610
   3.680        390.83	    21.656
   3.700        395.83	    21.794
   3.720        350.00	    20.494
   3.740        369.17	    21.048
   3.760        391.67	    21.679
   3.780        387.50	    21.564
   3.800        366.67	    20.976
   3.820        381.67	    21.401
   3.840        336.67	    20.100
   3.860        349.17	    20.469
   3.880        336.67	    20.100
   3.900        410.83	    22.204
   3.920        350.00	    20.494
   3.940        357.50	    20.712
   3.960        337.50	    20.125
   3.980        366.67	    20.976
   4.000        340.00	    20.199
   4.020        357.50	    20.712
   4.040        338.33	    20.149
   4.060        335.00	    20.050
   4.080        330.83	    19.925
   4.100        328.33	    19.849
   4.120        348.33	    20.445
   4.140        348.33	    20.445
   4.160        325.00	    19.748
   4.180        325.00	    19.748
   4.200        321.67	    19.647
   4.220        313.33	    19.391
   4.240        299.17	    18.947
   4.260        309.17	    19.261
   4.280        356.67	    20.688
   4.300        336.67	    20.100
   4.320        295.83	    18.841
   4.340        317.50	    19.519
   4.360        339.17	    20.174
   4.380        319.17	    19.570
   4.400        300.00	    18.974
   4.420        325.00	    19.748
   4.440        310.83	    19.313
   4.460        297.50	    18.894
   4.480        279.17	    18.303
   4.500        299.17	    18.947
   4.520        306.67	    19.183
   4.540        285.83	    18.520
   4.560        265.00	    17.833
   4.580        299.17	    18.947
   4.600        279.17	    18.303
   4.620        300.83	    19.000
   4.640        275.00	    18.166
   4.660        307.50	    19.209
   4.680        255.83	    17.521
   4.700        290.83	    18.682
   4.720        289.17	    18.628
   4.740        294.17	    18.788
   4.760        277.50	    18.248
   4.780        272.50	    18.083
   4.800        304.17	    19.105
   4.820        294.17	    18.788
   4.840        251.67	    17.378
   4.860        266.67	    17.889
   4.880        266.67	    17.889
   4.900        276.67	    18.221
   4.920        303.33	    19.079
   4.940        295.83	    18.841
   4.960        261.67	    17.720
   4.980        235.83	    16.823
   5.000        240.00	    16.971
   5.020        261.67	    17.720
   5.040        260.83	    17.692
   5.060        273.33	    18.111
   5.080        272.50	    18.083
   5.100        247.50	    17.234
   5.120        275.00	    18.166
   5.140        263.33	    17.776
   5.160        250.00	    17.321
   5.180        263.33	    17.776
   5.200        270.00	    18.000
   5.220        270.00	    18.000
   5.240        260.83	    17.692
   5.260        273.33	    18.111
   5.280        271.67	    18.055
   5.300        240.00	    16.971
   5.320        260.83	    17.692
   5.340        229.17	    16.583
   5.360        290.00	    18.655
   5.380        232.50	    16.703
   5.400        250.83	    17.349
   5.420        279.17	    18.303
   5.440        272.50	    18.083
   5.460        265.83	    17.861
   5.480        243.33	    17.088
   5.500        258.33	    17.607
   5.520        238.33	    16.912
   5.540        239.17	    16.941
   5.560        229.17	    16.583
   5.580        250.00	    17.321
   5.600        265.00	    17.833
   5.620        270.83	    18.028
   5.640        255.83	    17.521
   5.660        269.17	    17.972
   5.680        277.50	    18.248
   5.700        273.33	    18.111
   5.720        303.33	    19.079
   5.740        293.33	    18.762
   5.760        306.67	    19.183
   5.780        335.83	    20.075
   5.800        378.33	    21.307
   5.820        405.83	    22.068
   5.840        380.83	    21.378
   5.860        363.33	    20.881
   5.880        271.67	    18.055
   5.900        274.17	    18.138
   5.920        265.00	    17.833
   5.940        267.50	    17.916
   5.960        282.50	    18.412
   5.980        268.33	    17.944
   6.000        272.50	    18.083
   6.020        268.33	    17.944
   6.040        265.00	    17.833
   6.060        250.83	    17.349
   6.080        260.00	    17.664
   6.100        292.50	    18.735
   6.120        277.50	    18.248
   6.140        278.33	    18.276
   6.160        240.00	    16.971
   6.180        238.33	    16.912
   6.200        230.83	    16.643
   6.220        220.00	    16.248
   6.240        230.83	    16.643
   6.260        227.50	    16.523
   6.280        211.67	    15.937
   6.300        230.83	    16.643
   6.320        215.00	    16.062
   6.340        209.17	    15.843
   6.360        195.00	    15.297
   6.380        213.33	    16.000
   6.400        205.83	    15.716
   6.420        194.17	    15.264
   6.440        200.00	    15.492
   6.460        225.00	    16.432
   6.480        197.50	    15.395
   6.500        206.67	    15.748
   6.520        212.50	    15.969
   6.540        214.17	    16.031
   6.560        205.83	    15.716
   6.580        211.67	    15.937
   6.600        186.67	    14.967
   6.620        203.33	    15.620
   6.640        210.83	    15.906
   6.660        203.33	    15.620
   6.680        183.33	    14.832
   6.700        198.33	    15.427
   6.720        193.33	    15.232
   6.740        214.17	    16.031
   6.760        183.33	    14.832
   6.780        207.50	    15.780
   6.800        171.67	    14.353
   6.820        206.67	    15.748
   6.840        182.50	    14.799
   6.860        176.67	    14.560
   6.880        210.00	    15.875
   6.900        182.50	    14.799
   6.920        165.83	    14.107
   6.940        178.33	    14.629
   6.960        195.83	    15.330
   6.980        203.33	    15.620
   7.000        189.17	    15.067
   7.020        194.17	    15.264
   7.040        175.00	    14.491
   7.060        210.00	    15.875
   7.080        185.00	    14.900
   7.100        190.83	    15.133
   7.120        168.33	    14.213
   7.140        184.17	    14.866
   7.160        175.83	    14.526
   7.180        216.67	    16.125
   7.200        177.50	    14.595
   7.220        178.33	    14.629
   7.240        170.83	    14.318
   7.260        180.83	    14.731
   7.280        185.00	    14.900
   7.300        173.33	    14.422
   7.320        170.83	    14.318
   7.340        192.50	    15.199
   7.360        157.50	    13.748
   7.380        163.33	    14.000
   7.400        169.17	    14.248
   7.420        165.83	    14.107
   7.440        168.33	    14.213
   7.460        170.00	    14.283
   7.480        162.50	    13.964
   7.500        153.33	    13.565
   7.520        165.00	    14.071
   7.540        161.67	    13.928
   7.560        162.50	    13.964
   7.580        165.00	    14.071
   7.600        170.00	    14.283
   7.620        175.83	    14.526
   7.640        154.17	    13.601
   7.660        150.00	    13.416
   7.680        165.00	    14.071
   7.700        157.50	    13.748
   7.720        157.50	    13.748
   7.740        172.50	    14.387
   7.760        188.33	    15.033
   7.780        180.00	    14.697
   7.800        173.33	    14.422
   7.820        150.83	    13.454
   7.840        175.00	    14.491
   7.860        151.67	    13.491
   7.880        150.00	    13.416
   7.900        145.00	    13.191
   7.920        163.33	    14.000
   7.940        157.50	    13.748
   7.960        166.67	    14.142
   7.980        143.33	    13.115
   8.000        150.00	    13.416
   8.020        150.83	    13.454
   8.040        160.83	    13.892
   8.060        158.33	    13.784
   8.080        151.67	    13.491
   8.100        145.83	    13.229
   8.120        163.33	    14.000
   8.140        152.50	    13.528
   8.160        173.33	    14.422
   8.180        158.33	    13.784
   8.200        162.50	    13.964
   8.220        165.00	    14.071
   8.240        160.83	    13.892
   8.260        150.83	    13.454
   8.280        155.83	    13.675
   8.300        160.00	    13.856
   8.320        171.67	    14.353
   8.340        176.67	    14.560
   8.360        156.67	    13.711
   8.380        149.17	    13.379
   8.400        168.33	    14.213
   8.420        152.50	    13.528
   8.440        165.00	    14.071
   8.460        190.00	    15.100
   8.480        181.67	    14.765
   8.500        192.50	    15.199
   8.520        170.83	    14.318
   8.540        189.17	    15.067
   8.560        208.33	    15.811
   8.580        229.17	    16.583
   8.600        230.83	    16.643
   8.620        280.83	    18.358
   8.640        314.17	    19.416
   8.660        363.33	    20.881
   8.680        433.33	    22.804
   8.700        524.17	    25.080
   8.720        663.33	    28.213
   8.740        683.33	    28.636
   8.760        684.17	    28.653
   8.780        523.33	    25.060
   8.800        406.67	    22.091
   8.820        266.67	    17.889
   8.840        212.50	    15.969
   8.860        172.50	    14.387
   8.880        164.17	    14.036
   8.900        162.50	    13.964
   8.920        156.67	    13.711
   8.940        176.67	    14.560
   8.960        155.83	    13.675
   8.980        173.33	    14.422
   9.000        204.17	    15.652
   9.020        197.50	    15.395
   9.040        195.00	    15.297
   9.060        185.00	    14.900
   9.080        180.83	    14.731
   9.100        166.67	    14.142
   9.120        155.00	    13.638
   9.140        150.83	    13.454
   9.160        133.33	    12.649
   9.180        124.17	    12.207
   9.200        121.67	    12.083
   9.220        146.67	    13.266
   9.240        128.33	    12.410
   9.260        143.33	    13.115
   9.280        144.17	    13.153
   9.300        122.50	    12.124
   9.320        123.33	    12.166
   9.340        145.83	    13.229
   9.360        147.50	    13.304
   9.380        120.83	    12.042
   9.400        143.33	    13.115
   9.420        153.33	    13.565
   9.440        128.33	    12.410
   9.460        120.83	    12.042
   9.480        146.67	    13.266
   9.500        113.33	    11.662
   9.520        126.67	    12.329
   9.540        125.00	    12.247
   9.560        139.17	    12.923
   9.580        129.17	    12.450
   9.600        139.17	    12.923
   9.620        108.33	    11.402
   9.640        124.17	    12.207
   9.660        116.67	    11.832
   9.680        117.50	    11.874
   9.700        144.17	    13.153
   9.720        152.50	    13.528
   9.740        115.83	    11.790
   9.760         90.83	    10.440
   9.780        127.50	    12.369
   9.800        106.67	    11.314
   9.820        113.33	    11.662
   9.840         93.33	    10.583
   9.860        129.17	    12.450
   9.880        133.33	    12.649
   9.900        123.33	    12.166
   9.920        110.83	    11.533
   9.940        110.83	    11.533
   9.960        119.17	    11.958
   9.980        128.33	    12.410
  10.000         93.33	    10.583
  10.020        107.50	    11.358
  10.040        112.50	    11.619
  10.060        123.33	    12.166
  10.080        107.50	    11.358
  10.100        112.50	    11.619
  10.120        102.50	    11.091
  10.140        140.00	    12.961
  10.160        124.17	    12.207
  10.180         89.17	    10.344
  10.200        129.17	    12.450
  10.220        113.33	    11.662
  10.240        106.67	    11.314
  10.260        110.00	    11.489
  10.280        108.33	    11.402
  10.300        113.33	    11.662
  10.320        117.50	    11.874
  10.340        132.50	    12.610
  10.360        167.50	    14.177
  10.380        157.50	    13.748
  10.400        153.33	    13.565
  10.420        145.00	    13.191
  10.440        117.50	    11.874
  10.460        104.17	    11.180
  10.480        110.83	    11.533
  10.500        100.83	    11.000
  10.520        115.00	    11.747
  10.540        126.67	    12.329
  10.560        114.17	    11.705
  10.580        100.00	    10.954
  10.600        115.83	    11.790
  10.620        115.00	    11.747
  10.640         97.50	    10.817
  10.660        105.83	    11.269
  10.680        110.00	    11.489
  10.700        101.67	    11.045
  10.720        116.67	    11.832
  10.740        101.67	    11.045
  10.760         95.00	    10.677
  10.780        100.83	    11.000
  10.800        114.17	    11.705
  10.820        105.00	    11.225
  10.840         95.83	    10.724
  10.860         90.00	    10.392
  10.880        115.83	    11.790
  10.900         90.83	    10.440
  10.920         92.50	    10.536
  10.940        102.50	    11.091
  10.960        104.17	    11.180
  10.980         93.33	    10.583
  11.000        100.83	    11.000
  11.020         98.33	    10.863
  11.040        102.50	    11.091
  11.060        108.33	    11.402
  11.080         95.00	    10.677
  11.100         95.00	    10.677
  11.120         95.83	    10.724
  11.140         98.33	    10.863
  11.160         95.83	    10.724
  11.180         87.50	    10.247
  11.200        105.00	    11.225
  11.220        113.33	    11.662
  11.240         99.17	    10.909
  11.260         94.17	    10.630
  11.280        103.33	    11.136
  11.300        112.50	    11.619
  11.320         97.50	    10.817
  11.340         89.17	    10.344
  11.360         86.67	    10.198
  11.380         82.50	     9.950
  11.400        105.00	    11.225
  11.420         99.17	    10.909
  11.440         95.83	    10.724
  11.460         75.83	     9.539
  11.480         98.33	    10.863
  11.500         88.33	    10.296
  11.520        108.33	    11.402
  11.540        112.50	    11.619
  11.560         89.17	    10.344
  11.580        101.67	    11.045
  11.600         88.33	    10.296
  11.620        102.50	    11.091
  11.640         90.83	    10.440
  11.660        100.00	    10.954
  11.680        115.00	    11.747
  11.700        113.33	    11.662
  11.720        108.33	    11.402
  11.740        101.67	    11.045
  11.760        110.00	    11.489
  11.780        119.17	    11.958
  11.800        120.00	    12.000
  11.820        117.50	    11.874
  11.840        105.83	    11.269
  11.860        115.83	    11.790
  11.880        100.00	    10.954
  11.900        112.50	    11.619
  11.920        145.00	    13.191
  11.940        162.50	    13.964
  11.960        165.83	    14.107
  11.980        205.00	    15.684
  12.000        273.33	    18.111
  12.020        241.67	    17.029
  12.040        269.17	    17.972
  12.060        264.17	    17.804
  12.080        229.17	    16.583
  12.100        191.67	    15.166
  12.120        181.67	    14.765
  12.140        163.33	    14.000
  12.160        156.67	    13.711
  12.180        165.83	    14.107
  12.200        180.00	    14.697
  12.220        164.17	    14.036
  12.240        193.33	    15.232
  12.260        201.67	    15.556
  12.280        220.83	    16.279
  12.300        312.50	    19.365
  12.320        325.00	    19.748
  12.340        375.83	    21.237
  12.360        407.50	    22.113
  12.380        482.50	    24.062
  12.400        469.17	    23.728
