
Filename:
	C:\Program Files\Thermo Electron\WinXRD\Datafiles\F_HERMAN\FIEN\4A_FT.raw

File Created:
	October 01, 2019 - 05:18 PM

Specimen Id:
	4A FT

Specimen Name:
	

Specimen Description:
	

Comment:
Scan Type: 2Theta Scan
Start Angle: 1 deg.
Stop Angle: 65 deg.
Num Points: 3201
Step Size: 0.02 deg.
Scan Rate: 1.000000
Scan Mode: Continuous
Wavelength: 1.540562
\Kalpha1: 1.540562	\Kalpha2: 1.544390	\Kbeta: 1.392218

Optics:
		Detector:
			 Type: Fixed Slits
		Tube: 
			 Type: Fixed Slits


Datas:
 Pos [deg]       Rate [CPS]      ESD [-]

Range 1 ---> Iteration 1
   1.000          0.00	     0.000
   1.020          0.00	     0.000
   1.040          0.00	     0.000
   1.060          0.00	     0.000
   1.080          0.00	     0.000
   1.100         57.50	     8.307
   1.120        126.67	    12.329
   1.140        976.67	    34.234
   1.160        305.83	    19.157
   1.180        571.67	    26.192
   1.200        188.33	    15.033
   1.220        295.83	    18.841
   1.240        318.33	    19.545
   1.260        290.83	    18.682
   1.280        271.67	    18.055
   1.300        319.17	    19.570
   1.320        331.67	    19.950
   1.340        380.00	    21.354
   1.360        370.83	    21.095
   1.380        431.67	    22.760
   1.400        585.00	    26.495
   1.420        850.83	    31.953
   1.440       1138.33	    36.959
   1.460       1524.17	    42.767
   1.480       2127.50	    50.527
   1.500       2695.00	    56.868
   1.520       2568.33	    55.516
   1.540       2801.67	    57.983
   1.560       2716.67	    57.096
   1.580       2633.33	    56.214
   1.600       2681.67	    56.727
   1.620       2484.17	    54.599
   1.640       2515.83	    54.945
   1.660       2515.00	    54.936
   1.680       2454.17	    54.268
   1.700       2376.67	    53.404
   1.720       2524.17	    55.036
   1.740       2275.83	    52.259
   1.760       2294.17	    52.469
   1.780       2108.33	    50.299
   1.800       1920.83	    48.010
   1.820       1907.50	    47.843
   1.840       1777.50	    46.184
   1.860       1565.83	    43.347
   1.880       1344.17	    40.162
   1.900       1276.67	    39.141
   1.920       1130.83	    36.837
   1.940        974.17	    34.191
   1.960        897.50	    32.818
   1.980        842.50	    31.796
   2.000        840.83	    31.765
   2.020        822.50	    31.417
   2.040        855.00	    32.031
   2.060        840.83	    31.765
   2.080        768.33	    30.364
   2.100        735.83	    29.715
   2.120        777.50	    30.545
   2.140        766.67	    30.332
   2.160        758.33	    30.166
   2.180        735.83	    29.715
   2.200        747.50	    29.950
   2.220        730.83	    29.614
   2.240        716.67	    29.326
   2.260        670.00	    28.355
   2.280        694.17	    28.862
   2.300        698.33	    28.948
   2.320        669.17	    28.337
   2.340        647.50	    27.875
   2.360        730.83	    29.614
   2.380        634.17	    27.586
   2.400        682.50	    28.618
   2.420        619.17	    27.258
   2.440        642.50	    27.767
   2.460        675.00	    28.460
   2.480        630.83	    27.514
   2.500        610.83	    27.074
   2.520        610.83	    27.074
   2.540        624.17	    27.368
   2.560        570.00	    26.153
   2.580        592.50	    26.665
   2.600        595.83	    26.739
   2.620        549.17	    25.671
   2.640        573.33	    26.230
   2.660        557.50	    25.865
   2.680        566.67	    26.077
   2.700        572.50	    26.211
   2.720        589.17	    26.589
   2.740        588.33	    26.571
   2.760        525.83	    25.120
   2.780        519.17	    24.960
   2.800        508.33	    24.698
   2.820        555.83	    25.826
   2.840        511.67	    24.779
   2.860        542.50	    25.515
   2.880        499.17	    24.474
   2.900        500.00	    24.495
   2.920        523.33	    25.060
   2.940        510.83	    24.759
   2.960        518.33	    24.940
   2.980        480.83	    24.021
   3.000        475.83	    23.896
   3.020        461.67	    23.537
   3.040        485.00	    24.125
   3.060        472.50	    23.812
   3.080        459.17	    23.473
   3.100        460.83	    23.516
   3.120        475.00	    23.875
   3.140        455.83	    23.388
   3.160        455.83	    23.388
   3.180        435.00	    22.847
   3.200        450.00	    23.238
   3.220        474.17	    23.854
   3.240        445.83	    23.130
   3.260        439.17	    22.956
   3.280        450.00	    23.238
   3.300        455.83	    23.388
   3.320        440.00	    22.978
   3.340        456.67	    23.409
   3.360        414.17	    22.293
   3.380        435.83	    22.869
   3.400        418.33	    22.405
   3.420        418.33	    22.405
   3.440        394.17	    21.749
   3.460        391.67	    21.679
   3.480        413.33	    22.271
   3.500        382.50	    21.424
   3.520        427.50	    22.650
   3.540        370.83	    21.095
   3.560        397.50	    21.840
   3.580        424.17	    22.561
   3.600        425.83	    22.605
   3.620        382.50	    21.424
   3.640        413.33	    22.271
   3.660        384.17	    21.471
   3.680        419.17	    22.428
   3.700        372.50	    21.142
   3.720        371.67	    21.119
   3.740        368.33	    21.024
   3.760        395.00	    21.772
   3.780        395.83	    21.794
   3.800        375.83	    21.237
   3.820        390.00	    21.633
   3.840        369.17	    21.048
   3.860        328.33	    19.849
   3.880        400.00	    21.909
   3.900        364.17	    20.905
   3.920        381.67	    21.401
   3.940        355.00	    20.640
   3.960        351.67	    20.543
   3.980        358.33	    20.736
   4.000        369.17	    21.048
   4.020        370.00	    21.071
   4.040        345.83	    20.372
   4.060        368.33	    21.024
   4.080        347.50	    20.421
   4.100        327.50	    19.824
   4.120        340.00	    20.199
   4.140        323.33	    19.698
   4.160        377.50	    21.284
   4.180        342.50	    20.273
   4.200        312.50	    19.365
   4.220        331.67	    19.950
   4.240        289.17	    18.628
   4.260        323.33	    19.698
   4.280        339.17	    20.174
   4.300        326.67	    19.799
   4.320        330.83	    19.925
   4.340        339.17	    20.174
   4.360        306.67	    19.183
   4.380        303.33	    19.079
   4.400        347.50	    20.421
   4.420        343.33	    20.298
   4.440        310.83	    19.313
   4.460        310.83	    19.313
   4.480        315.00	    19.442
   4.500        325.83	    19.774
   4.520        296.67	    18.868
   4.540        300.83	    19.000
   4.560        286.67	    18.547
   4.580        328.33	    19.849
   4.600        288.33	    18.601
   4.620        287.50	    18.574
   4.640        309.17	    19.261
   4.660        290.00	    18.655
   4.680        291.67	    18.708
   4.700        288.33	    18.601
   4.720        275.83	    18.193
   4.740        310.00	    19.287
   4.760        308.33	    19.235
   4.780        264.17	    17.804
   4.800        287.50	    18.574
   4.820        305.83	    19.157
   4.840        260.00	    17.664
   4.860        283.33	    18.439
   4.880        260.00	    17.664
   4.900        298.33	    18.921
   4.920        230.83	    16.643
   4.940        255.83	    17.521
   4.960        312.50	    19.365
   4.980        272.50	    18.083
   5.000        290.00	    18.655
   5.020        290.83	    18.682
   5.040        241.67	    17.029
   5.060        276.67	    18.221
   5.080        275.83	    18.193
   5.100        271.67	    18.055
   5.120        267.50	    17.916
   5.140        271.67	    18.055
   5.160        262.50	    17.748
   5.180        272.50	    18.083
   5.200        274.17	    18.138
   5.220        267.50	    17.916
   5.240        235.83	    16.823
   5.260        273.33	    18.111
   5.280        268.33	    17.944
   5.300        282.50	    18.412
   5.320        264.17	    17.804
   5.340        240.00	    16.971
   5.360        250.00	    17.321
   5.380        242.50	    17.059
   5.400        294.17	    18.788
   5.420        255.83	    17.521
   5.440        255.83	    17.521
   5.460        237.50	    16.882
   5.480        235.00	    16.793
   5.500        256.67	    17.550
   5.520        226.67	    16.492
   5.540        258.33	    17.607
   5.560        240.83	    17.000
   5.580        266.67	    17.889
   5.600        254.17	    17.464
   5.620        248.33	    17.263
   5.640        263.33	    17.776
   5.660        268.33	    17.944
   5.680        271.67	    18.055
   5.700        282.50	    18.412
   5.720        283.33	    18.439
   5.740        270.00	    18.000
   5.760        310.00	    19.287
   5.780        314.17	    19.416
   5.800        315.00	    19.442
   5.820        300.83	    19.000
   5.840        311.67	    19.339
   5.860        296.67	    18.868
   5.880        332.50	    19.975
   5.900        295.00	    18.815
   5.920        269.17	    17.972
   5.940        313.33	    19.391
   5.960        305.83	    19.157
   5.980        322.50	    19.672
   6.000        310.00	    19.287
   6.020        321.67	    19.647
   6.040        357.50	    20.712
   6.060        333.33	    20.000
   6.080        375.83	    21.237
   6.100        361.67	    20.833
   6.120        384.17	    21.471
   6.140        352.50	    20.567
   6.160        360.83	    20.809
   6.180        355.83	    20.664
   6.200        305.00	    19.131
   6.220        287.50	    18.574
   6.240        281.67	    18.385
   6.260        240.00	    16.971
   6.280        225.83	    16.462
   6.300        235.00	    16.793
   6.320        202.50	    15.588
   6.340        220.83	    16.279
   6.360        225.83	    16.462
   6.380        250.83	    17.349
   6.400        252.50	    17.407
   6.420        233.33	    16.733
   6.440        221.67	    16.310
   6.460        240.83	    17.000
   6.480        230.83	    16.643
   6.500        228.33	    16.553
   6.520        243.33	    17.088
   6.540        235.83	    16.823
   6.560        236.67	    16.852
   6.580        230.83	    16.643
   6.600        204.17	    15.652
   6.620        211.67	    15.937
   6.640        227.50	    16.523
   6.660        218.33	    16.186
   6.680        243.33	    17.088
   6.700        209.17	    15.843
   6.720        226.67	    16.492
   6.740        229.17	    16.583
   6.760        231.67	    16.673
   6.780        230.83	    16.643
   6.800        220.83	    16.279
   6.820        223.33	    16.371
   6.840        213.33	    16.000
   6.860        178.33	    14.629
   6.880        203.33	    15.620
   6.900        212.50	    15.969
   6.920        190.00	    15.100
   6.940        186.67	    14.967
   6.960        200.83	    15.524
   6.980        177.50	    14.595
   7.000        192.50	    15.199
   7.020        179.17	    14.663
   7.040        186.67	    14.967
   7.060        185.83	    14.933
   7.080        170.00	    14.283
   7.100        205.83	    15.716
   7.120        185.83	    14.933
   7.140        185.83	    14.933
   7.160        211.67	    15.937
   7.180        186.67	    14.967
   7.200        185.00	    14.900
   7.220        196.67	    15.362
   7.240        194.17	    15.264
   7.260        201.67	    15.556
   7.280        182.50	    14.799
   7.300        203.33	    15.620
   7.320        185.00	    14.900
   7.340        178.33	    14.629
   7.360        165.00	    14.071
   7.380        193.33	    15.232
   7.400        178.33	    14.629
   7.420        164.17	    14.036
   7.440        167.50	    14.177
   7.460        185.83	    14.933
   7.480        170.00	    14.283
   7.500        170.00	    14.283
   7.520        156.67	    13.711
   7.540        172.50	    14.387
   7.560        197.50	    15.395
   7.580        185.83	    14.933
   7.600        162.50	    13.964
   7.620        180.83	    14.731
   7.640        179.17	    14.663
   7.660        188.33	    15.033
   7.680        161.67	    13.928
   7.700        183.33	    14.832
   7.720        161.67	    13.928
   7.740        176.67	    14.560
   7.760        154.17	    13.601
   7.780        158.33	    13.784
   7.800        165.83	    14.107
   7.820        157.50	    13.748
   7.840        173.33	    14.422
   7.860        180.00	    14.697
   7.880        160.83	    13.892
   7.900        162.50	    13.964
   7.920        189.17	    15.067
   7.940        188.33	    15.033
   7.960        145.83	    13.229
   7.980        144.17	    13.153
   8.000        151.67	    13.491
   8.020        170.00	    14.283
   8.040        141.67	    13.038
   8.060        173.33	    14.422
   8.080        145.00	    13.191
   8.100        163.33	    14.000
   8.120        169.17	    14.248
   8.140        140.83	    13.000
   8.160        172.50	    14.387
   8.180        170.00	    14.283
   8.200        154.17	    13.601
   8.220        180.83	    14.731
   8.240        170.00	    14.283
   8.260        177.50	    14.595
   8.280        195.00	    15.297
   8.300        180.00	    14.697
   8.320        175.00	    14.491
   8.340        179.17	    14.663
   8.360        163.33	    14.000
   8.380        209.17	    15.843
   8.400        185.83	    14.933
   8.420        185.00	    14.900
   8.440        190.83	    15.133
   8.460        185.83	    14.933
   8.480        189.17	    15.067
   8.500        215.00	    16.062
   8.520        200.83	    15.524
   8.540        250.83	    17.349
   8.560        242.50	    17.059
   8.580        266.67	    17.889
   8.600        260.00	    17.664
   8.620        278.33	    18.276
   8.640        309.17	    19.261
   8.660        335.83	    20.075
   8.680        341.67	    20.248
   8.700        372.50	    21.142
   8.720        428.33	    22.672
   8.740        502.50	    24.556
   8.760        516.67	    24.900
   8.780        515.00	    24.860
   8.800        557.50	    25.865
   8.820        515.83	    24.880
   8.840        472.50	    23.812
   8.860        298.33	    18.921
   8.880        229.17	    16.583
   8.900        190.83	    15.133
   8.920        171.67	    14.353
   8.940        187.50	    15.000
   8.960        160.83	    13.892
   8.980        184.17	    14.866
   9.000        167.50	    14.177
   9.020        175.00	    14.491
   9.040        135.00	    12.728
   9.060        144.17	    13.153
   9.080        159.17	    13.820
   9.100        160.83	    13.892
   9.120        143.33	    13.115
   9.140        149.17	    13.379
   9.160        163.33	    14.000
   9.180        157.50	    13.748
   9.200        168.33	    14.213
   9.220        145.83	    13.229
   9.240        150.00	    13.416
   9.260        156.67	    13.711
   9.280        164.17	    14.036
   9.300        168.33	    14.213
   9.320        220.83	    16.279
   9.340        232.50	    16.703
   9.360        218.33	    16.186
   9.380        221.67	    16.310
   9.400        192.50	    15.199
   9.420        151.67	    13.491
   9.440        125.83	    12.288
   9.460        146.67	    13.266
   9.480        137.50	    12.845
   9.500        133.33	    12.649
   9.520        140.00	    12.961
   9.540        145.00	    13.191
   9.560        150.00	    13.416
   9.580        112.50	    11.619
   9.600        138.33	    12.884
   9.620        149.17	    13.379
   9.640        114.17	    11.705
   9.660        125.00	    12.247
   9.680        144.17	    13.153
   9.700        145.00	    13.191
   9.720        152.50	    13.528
   9.740        149.17	    13.379
   9.760        132.50	    12.610
   9.780        120.83	    12.042
   9.800        110.83	    11.533
   9.820        105.00	    11.225
   9.840        120.83	    12.042
   9.860        110.83	    11.533
   9.880        120.83	    12.042
   9.900        114.17	    11.705
   9.920        113.33	    11.662
   9.940        118.33	    11.916
   9.960        115.00	    11.747
   9.980        102.50	    11.091
  10.000        108.33	    11.402
  10.020        110.00	    11.489
  10.040        132.50	    12.610
  10.060        131.67	    12.570
  10.080        127.50	    12.369
  10.100        104.17	    11.180
  10.120        110.83	    11.533
  10.140        122.50	    12.124
  10.160        126.67	    12.329
  10.180        106.67	    11.314
  10.200        119.17	    11.958
  10.220        121.67	    12.083
  10.240        127.50	    12.369
  10.260        140.83	    13.000
  10.280        125.00	    12.247
  10.300        125.00	    12.247
  10.320        148.33	    13.342
  10.340        127.50	    12.369
  10.360        156.67	    13.711
  10.380        181.67	    14.765
  10.400        210.83	    15.906
  10.420        237.50	    16.882
  10.440        261.67	    17.720
  10.460        214.17	    16.031
  10.480        175.00	    14.491
  10.500        161.67	    13.928
  10.520        143.33	    13.115
  10.540        130.00	    12.490
  10.560        112.50	    11.619
  10.580        117.50	    11.874
  10.600        103.33	    11.136
  10.620        113.33	    11.662
  10.640        106.67	    11.314
  10.660        121.67	    12.083
  10.680        107.50	    11.358
  10.700        116.67	    11.832
  10.720        104.17	    11.180
  10.740        115.83	    11.790
  10.760        110.83	    11.533
  10.780        106.67	    11.314
  10.800        110.00	    11.489
  10.820         85.83	    10.149
  10.840        101.67	    11.045
  10.860        119.17	    11.958
  10.880        110.83	    11.533
  10.900        116.67	    11.832
  10.920        111.67	    11.576
  10.940        105.83	    11.269
  10.960         95.83	    10.724
  10.980        117.50	    11.874
  11.000         87.50	    10.247
  11.020        119.17	    11.958
  11.040        111.67	    11.576
  11.060        100.00	    10.954
  11.080         93.33	    10.583
  11.100         88.33	    10.296
  11.120        100.83	    11.000
  11.140         87.50	    10.247
  11.160        119.17	    11.958
  11.180         85.00	    10.100
  11.200         95.83	    10.724
  11.220         93.33	    10.583
  11.240         94.17	    10.630
  11.260        101.67	    11.045
  11.280        100.83	    11.000
  11.300        108.33	    11.402
  11.320        135.00	    12.728
  11.340         97.50	    10.817
  11.360        121.67	    12.083
  11.380         95.00	    10.677
  11.400        114.17	    11.705
  11.420        101.67	    11.045
  11.440         93.33	    10.583
  11.460         88.33	    10.296
  11.480         99.17	    10.909
  11.500        104.17	    11.180
  11.520        118.33	    11.916
  11.540        105.83	    11.269
  11.560        120.83	    12.042
  11.580        115.00	    11.747
  11.600        108.33	    11.402
  11.620        127.50	    12.369
  11.640        136.67	    12.806
  11.660        114.17	    11.705
  11.680        100.00	    10.954
  11.700        100.00	    10.954
  11.720        115.83	    11.790
  11.740        117.50	    11.874
  11.760        128.33	    12.410
  11.780        132.50	    12.610
  11.800        100.83	    11.000
  11.820        135.83	    12.767
  11.840        125.00	    12.247
  11.860        131.67	    12.570
  11.880        170.83	    14.318
  11.900        165.83	    14.107
  11.920        185.83	    14.933
  11.940        190.83	    15.133
  11.960        231.67	    16.673
  11.980        292.50	    18.735
  12.000        410.83	    22.204
  12.020        547.50	    25.632
  12.040        700.00	    28.983
  12.060        855.83	    32.047
  12.080       1099.17	    36.318
  12.100       1172.50	    37.510
  12.120       1148.33	    37.121
  12.140       1034.17	    35.228
  12.160        799.17	    30.968
  12.180        575.00	    26.268
  12.200        491.67	    24.290
  12.220        423.33	    22.539
  12.240        426.67	    22.627
  12.260        472.50	    23.812
  12.280        468.33	    23.707
  12.300        395.83	    21.794
  12.320        445.00	    23.108
  12.340        443.33	    23.065
  12.360        516.67	    24.900
  12.380        548.33	    25.652
  12.400        566.67	    26.077
