
Filename:
	C:\Program Files\Thermo Electron\WinXRD\Datafiles\F_HERMAN\FIEN\5_2_AG_FILTER.raw

File Created:
	December 18, 2018 - 04:25 PM

Specimen Id:
	5.2 AUGUST AG  FILTER

Specimen Name:
	

Specimen Description:
	

Comment:
Scan Type: 2Theta Scan
Start Angle: 1 deg.
Stop Angle: 65 deg.
Num Points: 3201
Step Size: 0.02 deg.
Scan Rate: 1.000000
Scan Mode: Continuous
Wavelength: 1.540562
\Kalpha1: 1.540562	\Kalpha2: 1.544390	\Kbeta: 1.392218

Optics:
		Detector:
			 Type: Fixed Slits
		Tube: 
			 Type: Fixed Slits


Datas:
 Pos [deg]       Rate [CPS]      ESD [-]

Range 1 ---> Iteration 1
   1.000        828.33	    31.528
   1.020        630.00	    27.495
   1.040        710.00	    29.189
   1.060        545.83	    25.593
   1.080        515.00	    24.860
   1.100        450.83	    23.259
   1.120        458.33	    23.452
   1.140        470.00	    23.749
   1.160        497.50	    24.434
   1.180        449.17	    23.216
   1.200        400.83	    21.932
   1.220        383.33	    21.448
   1.240        421.67	    22.494
   1.260        384.17	    21.471
   1.280        464.17	    23.601
   1.300        580.83	    26.401
   1.320        820.83	    31.385
   1.340        923.33	    33.287
   1.360       1090.83	    36.180
   1.380       1215.00	    38.184
   1.400       1314.17	    39.711
   1.420       1370.00	    40.546
   1.440       1315.00	    39.724
   1.460       1290.83	    39.357
   1.480       1239.17	    38.562
   1.500       1197.50	    37.908
   1.520       1206.67	    38.053
   1.540       1175.83	    37.563
   1.560       1065.83	    35.763
   1.580       1089.17	    36.152
   1.600       1004.17	    34.713
   1.620        985.83	    34.395
   1.640        900.83	    32.879
   1.660        892.50	    32.726
   1.680        821.67	    31.401
   1.700        775.83	    30.512
   1.720        750.00	    30.000
   1.740        711.67	    29.223
   1.760        610.00	    27.055
   1.780        618.33	    27.240
   1.800        560.83	    25.942
   1.820        530.83	    25.239
   1.840        558.33	    25.884
   1.860        512.50	    24.799
   1.880        451.67	    23.281
   1.900        487.50	    24.187
   1.920        435.00	    22.847
   1.940        450.83	    23.259
   1.960        438.33	    22.935
   1.980        457.50	    23.431
   2.000        427.50	    22.650
   2.020        393.33	    21.726
   2.040        390.00	    21.633
   2.060        458.33	    23.452
   2.080        390.83	    21.656
   2.100        413.33	    22.271
   2.120        387.50	    21.564
   2.140        406.67	    22.091
   2.160        393.33	    21.726
   2.180        355.00	    20.640
   2.200        345.83	    20.372
   2.220        381.67	    21.401
   2.240        344.17	    20.322
   2.260        350.00	    20.494
   2.280        378.33	    21.307
   2.300        350.83	    20.518
   2.320        340.83	    20.224
   2.340        320.00	    19.596
   2.360        325.83	    19.774
   2.380        315.00	    19.442
   2.400        335.83	    20.075
   2.420        329.17	    19.875
   2.440        330.00	    19.900
   2.460        325.00	    19.748
   2.480        305.83	    19.157
   2.500        302.50	    19.053
   2.520        317.50	    19.519
   2.540        330.83	    19.925
   2.560        304.17	    19.105
   2.580        296.67	    18.868
   2.600        276.67	    18.221
   2.620        339.17	    20.174
   2.640        274.17	    18.138
   2.660        285.83	    18.520
   2.680        299.17	    18.947
   2.700        285.83	    18.520
   2.720        273.33	    18.111
   2.740        255.83	    17.521
   2.760        263.33	    17.776
   2.780        270.00	    18.000
   2.800        278.33	    18.276
   2.820        280.83	    18.358
   2.840        242.50	    17.059
   2.860        271.67	    18.055
   2.880        271.67	    18.055
   2.900        267.50	    17.916
   2.920        246.67	    17.205
   2.940        267.50	    17.916
   2.960        266.67	    17.889
   2.980        204.17	    15.652
   3.000        225.00	    16.432
   3.020        245.83	    17.176
   3.040        232.50	    16.703
   3.060        230.00	    16.613
   3.080        233.33	    16.733
   3.100        240.00	    16.971
   3.120        229.17	    16.583
   3.140        249.17	    17.292
   3.160        255.83	    17.521
   3.180        227.50	    16.523
   3.200        232.50	    16.703
   3.220        217.50	    16.155
   3.240        219.17	    16.217
   3.260        219.17	    16.217
   3.280        207.50	    15.780
   3.300        215.00	    16.062
   3.320        237.50	    16.882
   3.340        215.00	    16.062
   3.360        221.67	    16.310
   3.380        228.33	    16.553
   3.400        213.33	    16.000
   3.420        195.00	    15.297
   3.440        209.17	    15.843
   3.460        191.67	    15.166
   3.480        169.17	    14.248
   3.500        224.17	    16.401
   3.520        211.67	    15.937
   3.540        199.17	    15.460
   3.560        207.50	    15.780
   3.580        198.33	    15.427
   3.600        209.17	    15.843
   3.620        195.83	    15.330
   3.640        188.33	    15.033
   3.660        186.67	    14.967
   3.680        198.33	    15.427
   3.700        172.50	    14.387
   3.720        192.50	    15.199
   3.740        171.67	    14.353
   3.760        175.83	    14.526
   3.780        198.33	    15.427
   3.800        204.17	    15.652
   3.820        183.33	    14.832
   3.840        185.00	    14.900
   3.860        163.33	    14.000
   3.880        170.00	    14.283
   3.900        162.50	    13.964
   3.920        175.00	    14.491
   3.940        185.00	    14.900
   3.960        172.50	    14.387
   3.980        164.17	    14.036
   4.000        180.00	    14.697
   4.020        173.33	    14.422
   4.040        153.33	    13.565
   4.060        174.17	    14.457
   4.080        177.50	    14.595
   4.100        167.50	    14.177
   4.120        168.33	    14.213
   4.140        158.33	    13.784
   4.160        155.00	    13.638
   4.180        166.67	    14.142
   4.200        154.17	    13.601
   4.220        158.33	    13.784
   4.240        156.67	    13.711
   4.260        169.17	    14.248
   4.280        164.17	    14.036
   4.300        155.00	    13.638
   4.320        160.83	    13.892
   4.340        174.17	    14.457
   4.360        156.67	    13.711
   4.380        165.00	    14.071
   4.400        168.33	    14.213
   4.420        148.33	    13.342
   4.440        164.17	    14.036
   4.460        157.50	    13.748
   4.480        165.00	    14.071
   4.500        150.00	    13.416
   4.520        146.67	    13.266
   4.540        154.17	    13.601
   4.560        136.67	    12.806
   4.580        159.17	    13.820
   4.600        153.33	    13.565
   4.620        154.17	    13.601
   4.640        145.00	    13.191
   4.660        145.00	    13.191
   4.680        166.67	    14.142
   4.700        130.00	    12.490
   4.720        157.50	    13.748
   4.740        132.50	    12.610
   4.760        158.33	    13.784
   4.780        135.83	    12.767
   4.800        132.50	    12.610
   4.820        132.50	    12.610
   4.840        147.50	    13.304
   4.860        130.00	    12.490
   4.880        147.50	    13.304
   4.900        145.83	    13.229
   4.920        142.50	    13.077
   4.940        125.00	    12.247
   4.960        128.33	    12.410
   4.980        132.50	    12.610
   5.000        129.17	    12.450
   5.020        140.00	    12.961
   5.040        137.50	    12.845
   5.060        122.50	    12.124
   5.080        120.83	    12.042
   5.100        129.17	    12.450
   5.120        120.00	    12.000
   5.140        122.50	    12.124
   5.160        128.33	    12.410
   5.180        126.67	    12.329
   5.200        131.67	    12.570
   5.220        130.83	    12.530
   5.240        109.17	    11.446
   5.260        111.67	    11.576
   5.280        124.17	    12.207
   5.300        132.50	    12.610
   5.320        137.50	    12.845
   5.340        133.33	    12.649
   5.360        128.33	    12.410
   5.380        132.50	    12.610
   5.400        122.50	    12.124
   5.420        130.00	    12.490
   5.440        117.50	    11.874
   5.460        139.17	    12.923
   5.480        125.83	    12.288
   5.500        123.33	    12.166
   5.520        130.83	    12.530
   5.540        155.00	    13.638
   5.560        103.33	    11.136
   5.580        108.33	    11.402
   5.600        130.00	    12.490
   5.620        124.17	    12.207
   5.640        135.83	    12.767
   5.660        135.83	    12.767
   5.680        114.17	    11.705
   5.700        121.67	    12.083
   5.720        132.50	    12.610
   5.740        120.83	    12.042
   5.760        100.00	    10.954
   5.780        125.00	    12.247
   5.800        121.67	    12.083
   5.820        115.00	    11.747
   5.840        105.83	    11.269
   5.860        120.00	    12.000
   5.880        115.83	    11.790
   5.900        110.00	    11.489
   5.920        110.00	    11.489
   5.940        120.00	    12.000
   5.960        110.83	    11.533
   5.980        118.33	    11.916
   6.000        121.67	    12.083
   6.020        105.00	    11.225
   6.040        134.17	    12.689
   6.060        126.67	    12.329
   6.080        127.50	    12.369
   6.100        127.50	    12.369
   6.120        130.00	    12.490
   6.140        150.83	    13.454
   6.160        138.33	    12.884
   6.180        181.67	    14.765
   6.200        190.83	    15.133
   6.220        184.17	    14.866
   6.240        195.00	    15.297
   6.260        180.83	    14.731
   6.280        207.50	    15.780
   6.300        177.50	    14.595
   6.320        172.50	    14.387
   6.340        148.33	    13.342
   6.360        105.00	    11.225
   6.380        113.33	    11.662
   6.400        125.00	    12.247
   6.420        102.50	    11.091
   6.440        125.83	    12.288
   6.460        101.67	    11.045
   6.480         99.17	    10.909
   6.500        116.67	    11.832
   6.520        111.67	    11.576
   6.540        107.50	    11.358
   6.560         94.17	    10.630
   6.580        108.33	    11.402
   6.600         98.33	    10.863
   6.620         91.67	    10.488
   6.640        101.67	    11.045
   6.660         99.17	    10.909
   6.680         81.67	     9.899
   6.700         93.33	    10.583
   6.720        106.67	    11.314
   6.740         92.50	    10.536
   6.760        105.00	    11.225
   6.780        107.50	    11.358
   6.800        106.67	    11.314
   6.820        113.33	    11.662
   6.840        100.83	    11.000
   6.860        112.50	    11.619
   6.880        101.67	    11.045
   6.900        107.50	    11.358
   6.920         83.33	    10.000
   6.940         76.67	     9.592
   6.960         97.50	    10.817
   6.980        101.67	    11.045
   7.000         90.00	    10.392
   7.020        105.00	    11.225
   7.040         89.17	    10.344
   7.060         83.33	    10.000
   7.080        108.33	    11.402
   7.100        100.00	    10.954
   7.120         89.17	    10.344
   7.140         99.17	    10.909
   7.160         90.00	    10.392
   7.180         88.33	    10.296
   7.200         96.67	    10.770
   7.220         76.67	     9.592
   7.240        101.67	    11.045
   7.260         90.00	    10.392
   7.280         92.50	    10.536
   7.300         94.17	    10.630
   7.320         95.00	    10.677
   7.340         94.17	    10.630
   7.360         80.83	     9.849
   7.380         87.50	    10.247
   7.400         86.67	    10.198
   7.420         77.50	     9.644
   7.440         90.00	    10.392
   7.460         80.83	     9.849
   7.480         98.33	    10.863
   7.500         81.67	     9.899
   7.520         90.83	    10.440
   7.540         74.17	     9.434
   7.560         70.83	     9.220
   7.580         97.50	    10.817
   7.600         98.33	    10.863
   7.620         95.00	    10.677
   7.640         84.17	    10.050
   7.660         92.50	    10.536
   7.680         90.00	    10.392
   7.700         90.00	    10.392
   7.720         75.00	     9.487
   7.740         88.33	    10.296
   7.760         72.50	     9.327
   7.780         85.83	    10.149
   7.800         85.00	    10.100
   7.820         75.83	     9.539
   7.840         88.33	    10.296
   7.860         76.67	     9.592
   7.880         97.50	    10.817
   7.900         85.83	    10.149
   7.920         87.50	    10.247
   7.940         77.50	     9.644
   7.960         84.17	    10.050
   7.980         90.00	    10.392
   8.000         91.67	    10.488
   8.020         83.33	    10.000
   8.040        100.00	    10.954
   8.060         83.33	    10.000
   8.080         81.67	     9.899
   8.100         84.17	    10.050
   8.120         77.50	     9.644
   8.140         73.33	     9.381
   8.160         76.67	     9.592
   8.180         77.50	     9.644
   8.200         93.33	    10.583
   8.220         79.17	     9.747
   8.240         80.83	     9.849
   8.260         72.50	     9.327
   8.280         77.50	     9.644
   8.300         90.83	    10.440
   8.320         88.33	    10.296
   8.340         75.00	     9.487
   8.360         86.67	    10.198
   8.380         65.83	     8.888
   8.400         70.83	     9.220
   8.420         85.00	    10.100
   8.440         93.33	    10.583
   8.460         71.67	     9.274
   8.480         80.83	     9.849
   8.500         87.50	    10.247
   8.520         70.83	     9.220
   8.540        100.00	    10.954
   8.560         85.83	    10.149
   8.580        106.67	    11.314
   8.600         94.17	    10.630
   8.620         95.00	    10.677
   8.640         87.50	    10.247
   8.660        102.50	    11.091
   8.680        110.00	    11.489
   8.700        121.67	    12.083
   8.720        112.50	    11.619
   8.740        141.67	    13.038
   8.760        160.83	    13.892
   8.780        145.83	    13.229
   8.800        160.83	    13.892
   8.820        182.50	    14.799
   8.840        182.50	    14.799
   8.860        196.67	    15.362
   8.880        245.83	    17.176
   8.900        317.50	    19.519
   8.920        281.67	    18.385
   8.940        264.17	    17.804
   8.960        208.33	    15.811
   8.980        153.33	    13.565
   9.000        119.17	    11.958
   9.020        113.33	    11.662
   9.040         95.83	    10.724
   9.060         96.67	    10.770
   9.080         81.67	     9.899
   9.100         81.67	     9.899
   9.120         75.83	     9.539
   9.140         85.00	    10.100
   9.160         85.83	    10.149
   9.180         82.50	     9.950
   9.200         85.00	    10.100
   9.220         75.00	     9.487
   9.240         80.00	     9.798
   9.260         79.17	     9.747
   9.280         68.33	     9.055
   9.300         58.33	     8.367
   9.320         88.33	    10.296
   9.340         70.83	     9.220
   9.360         76.67	     9.592
   9.380        102.50	    11.091
   9.400         68.33	     9.055
   9.420         90.00	    10.392
   9.440         83.33	    10.000
   9.460         89.17	    10.344
   9.480         90.00	    10.392
   9.500         89.17	    10.344
   9.520         83.33	    10.000
   9.540         75.00	     9.487
   9.560         81.67	     9.899
   9.580         59.17	     8.426
   9.600         65.00	     8.832
   9.620         70.00	     9.165
   9.640         72.50	     9.327
   9.660         69.17	     9.110
   9.680         62.50	     8.660
   9.700         53.33	     8.000
   9.720         62.50	     8.660
   9.740         72.50	     9.327
   9.760         60.00	     8.485
   9.780         62.50	     8.660
   9.800         79.17	     9.747
   9.820         82.50	     9.950
   9.840         77.50	     9.644
   9.860         85.00	    10.100
   9.880         67.50	     9.000
   9.900         68.33	     9.055
   9.920         76.67	     9.592
   9.940         65.00	     8.832
   9.960         60.00	     8.485
   9.980         69.17	     9.110
  10.000         62.50	     8.660
  10.020         65.00	     8.832
  10.040         55.83	     8.185
  10.060         54.17	     8.062
  10.080         58.33	     8.367
  10.100         68.33	     9.055
  10.120         59.17	     8.426
  10.140         59.17	     8.426
  10.160         65.83	     8.888
  10.180         60.00	     8.485
  10.200         54.17	     8.062
  10.220         61.67	     8.602
  10.240         67.50	     9.000
  10.260         46.67	     7.483
  10.280         52.50	     7.937
  10.300         59.17	     8.426
  10.320         61.67	     8.602
  10.340         72.50	     9.327
  10.360         65.00	     8.832
  10.380         60.83	     8.544
  10.400         54.17	     8.062
  10.420         64.17	     8.775
  10.440         55.83	     8.185
  10.460         70.83	     9.220
  10.480         86.67	    10.198
  10.500         97.50	    10.817
  10.520        115.00	    11.747
  10.540        101.67	    11.045
  10.560        118.33	    11.916
  10.580        114.17	    11.705
  10.600        125.00	    12.247
  10.620        106.67	    11.314
  10.640        143.33	    13.115
  10.660        158.33	    13.784
  10.680        133.33	    12.649
  10.700         81.67	     9.899
  10.720         86.67	    10.198
  10.740         69.17	     9.110
  10.760         53.33	     8.000
  10.780         60.00	     8.485
  10.800         54.17	     8.062
  10.820         65.83	     8.888
  10.840         54.17	     8.062
  10.860         61.67	     8.602
  10.880         55.00	     8.124
  10.900         60.00	     8.485
  10.920         43.33	     7.211
  10.940         48.33	     7.616
  10.960         54.17	     8.062
  10.980         51.67	     7.874
  11.000         52.50	     7.937
  11.020         53.33	     8.000
  11.040         48.33	     7.616
  11.060         51.67	     7.874
  11.080         58.33	     8.367
  11.100         54.17	     8.062
  11.120         53.33	     8.000
  11.140         55.00	     8.124
  11.160         74.17	     9.434
  11.180         60.00	     8.485
  11.200         53.33	     8.000
  11.220         48.33	     7.616
  11.240         44.17	     7.280
  11.260         62.50	     8.660
  11.280         50.00	     7.746
  11.300         48.33	     7.616
  11.320         52.50	     7.937
  11.340         49.17	     7.681
  11.360         58.33	     8.367
  11.380         54.17	     8.062
  11.400         57.50	     8.307
  11.420         50.83	     7.810
  11.440         58.33	     8.367
  11.460         45.83	     7.416
  11.480         45.00	     7.348
  11.500         53.33	     8.000
  11.520         54.17	     8.062
  11.540         53.33	     8.000
  11.560         48.33	     7.616
  11.580         55.00	     8.124
  11.600         51.67	     7.874
  11.620         43.33	     7.211
  11.640         50.83	     7.810
  11.660         48.33	     7.616
  11.680         51.67	     7.874
  11.700         56.67	     8.246
  11.720         41.67	     7.071
  11.740         51.67	     7.874
  11.760         43.33	     7.211
  11.780         55.00	     8.124
  11.800         35.83	     6.557
  11.820         48.33	     7.616
  11.840         50.83	     7.810
  11.860         69.17	     9.110
  11.880         57.50	     8.307
  11.900         55.83	     8.185
  11.920         49.17	     7.681
  11.940         55.00	     8.124
  11.960         65.83	     8.888
  11.980         63.33	     8.718
  12.000         65.00	     8.832
  12.020         60.00	     8.485
  12.040         65.83	     8.888
  12.060         79.17	     9.747
  12.080        101.67	    11.045
  12.100        100.83	    11.000
  12.120        124.17	    12.207
  12.140        179.17	    14.663
  12.160        217.50	    16.155
  12.180        278.33	    18.276
  12.200        379.17	    21.331
  12.220        435.00	    22.847
  12.240        428.33	    22.672
  12.260        366.67	    20.976
  12.280        285.83	    18.520
  12.300        250.00	    17.321
  12.320        176.67	    14.560
  12.340        180.00	    14.697
  12.360        166.67	    14.142
  12.380        197.50	    15.395
