
Filename:
	C:\Program Files\Thermo Electron\WinXRD\Datafiles\F_HERMAN\FIEN\G12_FT.raw

File Created:
	October 04, 2019 - 04:36 PM

Specimen Id:
	G12 FT

Specimen Name:
	

Specimen Description:
	

Comment:
Scan Type: 2Theta Scan
Start Angle: 1 deg.
Stop Angle: 65 deg.
Num Points: 3201
Step Size: 0.02 deg.
Scan Rate: 1.000000
Scan Mode: Continuous
Wavelength: 1.540562
\Kalpha1: 1.540562	\Kalpha2: 1.544390	\Kbeta: 1.392218

Optics:
		Detector:
			 Type: Fixed Slits
		Tube: 
			 Type: Fixed Slits


Datas:
 Pos [deg]       Rate [CPS]      ESD [-]

Range 1 ---> Iteration 1
   1.000         91.67	    10.488
   1.020        103.33	    11.136
   1.040        107.50	    11.358
   1.060        102.50	    11.091
   1.080         91.67	    10.488
   1.100         95.00	    10.677
   1.120        105.83	    11.269
   1.140        110.00	    11.489
   1.160        101.67	    11.045
   1.180        110.83	    11.533
   1.200        109.17	    11.446
   1.220        106.67	    11.314
   1.240        107.50	    11.358
   1.260        114.17	    11.705
   1.280         97.50	    10.817
   1.300        100.00	    10.954
   1.320        103.33	    11.136
   1.340        113.33	    11.662
   1.360        120.83	    12.042
   1.380         92.50	    10.536
   1.400        108.33	    11.402
   1.420        113.33	    11.662
   1.440        100.00	    10.954
   1.460        118.33	    11.916
   1.480        125.83	    12.288
   1.500        105.00	    11.225
   1.520        101.67	    11.045
   1.540        133.33	    12.649
   1.560        115.00	    11.747
   1.580        116.67	    11.832
   1.600        143.33	    13.115
   1.620        106.67	    11.314
   1.640        125.00	    12.247
   1.660        133.33	    12.649
   1.680        138.33	    12.884
   1.700        120.83	    12.042
   1.720        138.33	    12.884
   1.740        147.50	    13.304
   1.760        145.83	    13.229
   1.780        143.33	    13.115
   1.800        149.17	    13.379
   1.820        146.67	    13.266
   1.840        178.33	    14.629
   1.860        167.50	    14.177
   1.880        135.00	    12.728
   1.900        162.50	    13.964
   1.920        153.33	    13.565
   1.940        166.67	    14.142
   1.960        160.00	    13.856
   1.980        160.83	    13.892
   2.000        171.67	    14.353
   2.020        163.33	    14.000
   2.040        166.67	    14.142
   2.060        141.67	    13.038
   2.080        196.67	    15.362
   2.100        193.33	    15.232
   2.120        193.33	    15.232
   2.140        175.83	    14.526
   2.160        195.00	    15.297
   2.180        181.67	    14.765
   2.200        172.50	    14.387
   2.220        187.50	    15.000
   2.240        182.50	    14.799
   2.260        184.17	    14.866
   2.280        195.83	    15.330
   2.300        214.17	    16.031
   2.320        200.83	    15.524
   2.340        236.67	    16.852
   2.360        226.67	    16.492
   2.380        232.50	    16.703
   2.400        237.50	    16.882
   2.420        266.67	    17.889
   2.440        235.83	    16.823
   2.460        254.17	    17.464
   2.480        276.67	    18.221
   2.500        247.50	    17.234
   2.520        294.17	    18.788
   2.540        255.00	    17.493
   2.560        275.00	    18.166
   2.580        293.33	    18.762
   2.600        306.67	    19.183
   2.620        282.50	    18.412
   2.640        318.33	    19.545
   2.660        304.17	    19.105
   2.680        316.67	    19.494
   2.700        324.17	    19.723
   2.720        331.67	    19.950
   2.740        336.67	    20.100
   2.760        375.00	    21.213
   2.780        380.00	    21.354
   2.800        377.50	    21.284
   2.820        424.17	    22.561
   2.840        456.67	    23.409
   2.860        502.50	    24.556
   2.880        598.33	    26.796
   2.900       1049.17	    35.482
   2.920       8225.83	    99.353
   2.940      33500.00	   200.499
   2.960       6405.83	    87.676
   2.980          0.00	     0.000
   3.000          0.00	     0.000
   3.020          0.00	     0.000
   3.040          0.00	     0.000
   3.060          0.00	     0.000
   3.080          0.00	     0.000
   3.100          0.00	     0.000
   3.120          0.00	     0.000
   3.140        244.17	    17.117
   3.160          3.33	     2.000
   3.180          0.00	     0.000
   3.200          0.00	     0.000
   3.220          0.00	     0.000
   3.240          0.00	     0.000
   3.260          0.00	     0.000
   3.280          0.00	     0.000
   3.300          0.00	     0.000
   3.320          0.00	     0.000
   3.340          0.00	     0.000
   3.360          0.00	     0.000
   3.380          0.00	     0.000
   3.400          0.00	     0.000
   3.420          0.00	     0.000
   3.440          0.00	     0.000
   3.460          0.00	     0.000
   3.480          0.00	     0.000
   3.500          0.00	     0.000
   3.520          0.00	     0.000
   3.540          0.00	     0.000
   3.560          0.00	     0.000
   3.580          0.00	     0.000
   3.600          0.00	     0.000
   3.620          0.00	     0.000
   3.640          0.00	     0.000
   3.660          0.00	     0.000
   3.680          0.00	     0.000
   3.700          0.00	     0.000
   3.720          0.00	     0.000
   3.740          1.67	     1.414
   3.760          0.00	     0.000
   3.780          0.00	     0.000
   3.800          0.00	     0.000
   3.820          0.00	     0.000
   3.840          0.00	     0.000
   3.860          0.00	     0.000
   3.880          0.00	     0.000
   3.900          0.00	     0.000
   3.920        218.33	    16.186
   3.940          0.00	     0.000
   3.960          0.00	     0.000
   3.980          0.00	     0.000
   4.000          0.00	     0.000
   4.020          0.00	     0.000
   4.040          0.00	     0.000
   4.060          0.00	     0.000
   4.080          0.00	     0.000
   4.100          0.00	     0.000
   4.120        205.00	    15.684
   4.140        334.17	    20.025
   4.160        449.17	    23.216
   4.180        479.17	    23.979
   4.200        247.50	    17.234
   4.220        325.00	    19.748
   4.240        285.83	    18.520
   4.260        334.17	    20.025
   4.280        303.33	    19.079
   4.300        260.83	    17.692
   4.320        387.50	    21.564
   4.340        315.83	    19.468
   4.360        344.17	    20.322
   4.380        397.50	    21.840
   4.400        585.00	    26.495
   4.420        726.67	    29.530
   4.440        940.83	    33.601
   4.460       1311.67	    39.674
   4.480       1898.33	    47.728
   4.500       2578.33	    55.624
   4.520       2594.17	    55.794
   4.540       2542.50	    55.236
   4.560       2532.50	    55.127
   4.580       2500.83	    54.781
   4.600       2426.67	    53.963
   4.620       2356.67	    53.179
   4.640       2325.00	    52.820
   4.660       2450.00	    54.222
   4.680       2286.67	    52.383
   4.700       2141.67	    50.695
   4.720       2275.00	    52.249
   4.740       2167.50	    51.000
   4.760       2141.67	    50.695
   4.780       1993.33	    48.908
   4.800       1870.00	    47.371
   4.820       1749.17	    45.815
   4.840       1632.50	    44.261
   4.860       1446.67	    41.665
   4.880       1259.17	    38.872
   4.900       1143.33	    37.041
   4.920        920.83	    33.242
   4.940        865.83	    32.234
   4.960        800.83	    31.000
   4.980        756.67	    30.133
   5.000        740.00	    29.799
   5.020        803.33	    31.048
   5.040        737.50	    29.749
   5.060        680.83	    28.583
   5.080        722.50	    29.445
   5.100        748.33	    29.967
   5.120        696.67	    28.914
   5.140        709.17	    29.172
   5.160        666.67	    28.284
   5.180        655.00	    28.036
   5.200        662.50	    28.196
   5.220        631.67	    27.532
   5.240        638.33	    27.677
   5.260        624.17	    27.368
   5.280        641.67	    27.749
   5.300        615.83	    27.185
   5.320        633.33	    27.568
   5.340        645.00	    27.821
   5.360        604.17	    26.926
   5.380        585.83	    26.514
   5.400        612.50	    27.111
   5.420        611.67	    27.092
   5.440        570.00	    26.153
   5.460        625.83	    27.404
   5.480        575.83	    26.287
   5.500        545.83	    25.593
   5.520        537.50	    25.397
   5.540        550.83	    25.710
   5.560        527.50	    25.159
   5.580        525.00	    25.100
   5.600        552.50	    25.749
   5.620        510.00	    24.739
   5.640        534.17	    25.318
   5.660        538.33	    25.417
   5.680        525.00	    25.100
   5.700        506.67	    24.658
   5.720        500.83	    24.515
   5.740        460.00	    23.495
   5.760        487.50	    24.187
   5.780        490.00	    24.249
   5.800        479.17	    23.979
   5.820        518.33	    24.940
   5.840        505.00	    24.617
   5.860        481.67	    24.042
   5.880        491.67	    24.290
   5.900        491.67	    24.290
   5.920        463.33	    23.580
   5.940        467.50	    23.685
   5.960        467.50	    23.685
   5.980        485.00	    24.125
   6.000        505.00	    24.617
   6.020        481.67	    24.042
   6.040        468.33	    23.707
   6.060        465.00	    23.622
   6.080        420.83	    22.472
   6.100        432.50	    22.782
   6.120        447.50	    23.173
   6.140        424.17	    22.561
   6.160        439.17	    22.956
   6.180        422.50	    22.517
   6.200        392.50	    21.703
   6.220        400.83	    21.932
   6.240        390.00	    21.633
   6.260        406.67	    22.091
   6.280        408.33	    22.136
   6.300        393.33	    21.726
   6.320        406.67	    22.091
   6.340        387.50	    21.564
   6.360        400.83	    21.932
   6.380        395.83	    21.794
   6.400        369.17	    21.048
   6.420        385.00	    21.494
   6.440        393.33	    21.726
   6.460        397.50	    21.840
   6.480        390.83	    21.656
   6.500        369.17	    21.048
   6.520        376.67	    21.260
   6.540        392.50	    21.703
   6.560        355.00	    20.640
   6.580        361.67	    20.833
   6.600        417.50	    22.383
   6.620        346.67	    20.396
   6.640        366.67	    20.976
   6.660        369.17	    21.048
   6.680        375.83	    21.237
   6.700        357.50	    20.712
   6.720        372.50	    21.142
   6.740        348.33	    20.445
   6.760        320.00	    19.596
   6.780        346.67	    20.396
   6.800        345.00	    20.347
   6.820        343.33	    20.298
   6.840        371.67	    21.119
   6.860        340.83	    20.224
   6.880        342.50	    20.273
   6.900        343.33	    20.298
   6.920        326.67	    19.799
   6.940        331.67	    19.950
   6.960        324.17	    19.723
   6.980        353.33	    20.591
   7.000        335.00	    20.050
   7.020        320.00	    19.596
   7.040        323.33	    19.698
   7.060        330.83	    19.925
   7.080        311.67	    19.339
   7.100        348.33	    20.445
   7.120        307.50	    19.209
   7.140        310.83	    19.313
   7.160        312.50	    19.365
   7.180        304.17	    19.105
   7.200        337.50	    20.125
   7.220        299.17	    18.947
   7.240        334.17	    20.025
   7.260        300.00	    18.974
   7.280        291.67	    18.708
   7.300        270.00	    18.000
   7.320        311.67	    19.339
   7.340        304.17	    19.105
   7.360        310.83	    19.313
   7.380        290.00	    18.655
   7.400        285.83	    18.520
   7.420        306.67	    19.183
   7.440        303.33	    19.079
   7.460        293.33	    18.762
   7.480        270.83	    18.028
   7.500        279.17	    18.303
   7.520        305.83	    19.157
   7.540        287.50	    18.574
   7.560        295.00	    18.815
   7.580        276.67	    18.221
   7.600        291.67	    18.708
   7.620        280.00	    18.330
   7.640        271.67	    18.055
   7.660        270.00	    18.000
   7.680        305.00	    19.131
   7.700        253.33	    17.436
   7.720        273.33	    18.111
   7.740        256.67	    17.550
   7.760        270.83	    18.028
   7.780        280.00	    18.330
   7.800        296.67	    18.868
   7.820        293.33	    18.762
   7.840        256.67	    17.550
   7.860        273.33	    18.111
   7.880        258.33	    17.607
   7.900        284.17	    18.466
   7.920        271.67	    18.055
   7.940        281.67	    18.385
   7.960        257.50	    17.578
   7.980        238.33	    16.912
   8.000        268.33	    17.944
   8.020        260.00	    17.664
   8.040        285.83	    18.520
   8.060        261.67	    17.720
   8.080        243.33	    17.088
   8.100        262.50	    17.748
   8.120        254.17	    17.464
   8.140        269.17	    17.972
   8.160        270.00	    18.000
   8.180        255.83	    17.521
   8.200        219.17	    16.217
   8.220        245.00	    17.146
   8.240        245.00	    17.146
   8.260        262.50	    17.748
   8.280        232.50	    16.703
   8.300        258.33	    17.607
   8.320        235.00	    16.793
   8.340        213.33	    16.000
   8.360        257.50	    17.578
   8.380        240.00	    16.971
   8.400        248.33	    17.263
   8.420        246.67	    17.205
   8.440        240.83	    17.000
   8.460        228.33	    16.553
   8.480        234.17	    16.763
   8.500        230.83	    16.643
   8.520        240.00	    16.971
   8.540        218.33	    16.186
   8.560        245.00	    17.146
   8.580        238.33	    16.912
   8.600        233.33	    16.733
   8.620        216.67	    16.125
   8.640        205.00	    15.684
   8.660        231.67	    16.673
   8.680        256.67	    17.550
   8.700        260.00	    17.664
   8.720        250.83	    17.349
   8.740        243.33	    17.088
   8.760        237.50	    16.882
   8.780        268.33	    17.944
   8.800        299.17	    18.947
   8.820        316.67	    19.494
   8.840        315.00	    19.442
   8.860        305.00	    19.131
   8.880        323.33	    19.698
   8.900        344.17	    20.322
   8.920        369.17	    21.048
   8.940        417.50	    22.383
   8.960        392.50	    21.703
   8.980        393.33	    21.726
   9.000        433.33	    22.804
   9.020        426.67	    22.627
   9.040        425.00	    22.583
   9.060        400.83	    21.932
   9.080        377.50	    21.284
   9.100        332.50	    19.975
   9.120        335.83	    20.075
   9.140        340.83	    20.224
   9.160        320.83	    19.621
   9.180        348.33	    20.445
   9.200        283.33	    18.439
   9.220        320.83	    19.621
   9.240        330.83	    19.925
   9.260        328.33	    19.849
   9.280        348.33	    20.445
   9.300        322.50	    19.672
   9.320        272.50	    18.083
   9.340        254.17	    17.464
   9.360        236.67	    16.852
   9.380        242.50	    17.059
   9.400        230.83	    16.643
   9.420        227.50	    16.523
   9.440        210.00	    15.875
   9.460        205.00	    15.684
   9.480        207.50	    15.780
   9.500        215.83	    16.093
   9.520        226.67	    16.492
   9.540        210.83	    15.906
   9.560        215.00	    16.062
   9.580        199.17	    15.460
   9.600        195.00	    15.297
   9.620        203.33	    15.620
   9.640        185.00	    14.900
   9.660        207.50	    15.780
   9.680        208.33	    15.811
   9.700        170.83	    14.318
   9.720        200.00	    15.492
   9.740        216.67	    16.125
   9.760        190.00	    15.100
   9.780        187.50	    15.000
   9.800        195.00	    15.297
   9.820        191.67	    15.166
   9.840        187.50	    15.000
   9.860        179.17	    14.663
   9.880        176.67	    14.560
   9.900        190.00	    15.100
   9.920        176.67	    14.560
   9.940        190.83	    15.133
   9.960        189.17	    15.067
   9.980        200.00	    15.492
  10.000        173.33	    14.422
  10.020        192.50	    15.199
  10.040        166.67	    14.142
  10.060        170.00	    14.283
  10.080        186.67	    14.967
  10.100        185.83	    14.933
  10.120        189.17	    15.067
  10.140        190.83	    15.133
  10.160        173.33	    14.422
  10.180        167.50	    14.177
  10.200        200.83	    15.524
  10.220        191.67	    15.166
  10.240        170.00	    14.283
  10.260        166.67	    14.142
  10.280        179.17	    14.663
  10.300        171.67	    14.353
  10.320        172.50	    14.387
  10.340        171.67	    14.353
  10.360        173.33	    14.422
  10.380        165.83	    14.107
  10.400        150.00	    13.416
  10.420        176.67	    14.560
  10.440        181.67	    14.765
  10.460        195.00	    15.297
  10.480        175.00	    14.491
  10.500        165.00	    14.071
  10.520        165.83	    14.107
  10.540        155.00	    13.638
  10.560        163.33	    14.000
  10.580        164.17	    14.036
  10.600        170.83	    14.318
  10.620        190.83	    15.133
  10.640        159.17	    13.820
  10.660        167.50	    14.177
  10.680        172.50	    14.387
  10.700        157.50	    13.748
  10.720        162.50	    13.964
  10.740        178.33	    14.629
  10.760        195.00	    15.297
  10.780        158.33	    13.784
  10.800        147.50	    13.304
  10.820        158.33	    13.784
  10.840        167.50	    14.177
  10.860        150.83	    13.454
  10.880        170.00	    14.283
  10.900        160.00	    13.856
  10.920        155.83	    13.675
  10.940        178.33	    14.629
  10.960        160.00	    13.856
  10.980        160.00	    13.856
  11.000        155.00	    13.638
  11.020        155.00	    13.638
  11.040        157.50	    13.748
  11.060        150.83	    13.454
  11.080        152.50	    13.528
  11.100        180.83	    14.731
  11.120        135.83	    12.767
  11.140        185.00	    14.900
  11.160        160.00	    13.856
  11.180        172.50	    14.387
  11.200        165.83	    14.107
  11.220        155.83	    13.675
  11.240        173.33	    14.422
  11.260        185.83	    14.933
  11.280        161.67	    13.928
  11.300        150.00	    13.416
  11.320        166.67	    14.142
  11.340        171.67	    14.353
  11.360        173.33	    14.422
  11.380        190.83	    15.133
  11.400        165.83	    14.107
  11.420        195.00	    15.297
  11.440        180.83	    14.731
  11.460        145.00	    13.191
  11.480        171.67	    14.353
  11.500        194.17	    15.264
  11.520        180.00	    14.697
  11.540        236.67	    16.852
  11.560        186.67	    14.967
  11.580        207.50	    15.780
  11.600        240.00	    16.971
  11.620        229.17	    16.583
  11.640        230.83	    16.643
  11.660        273.33	    18.111
  11.680        297.50	    18.894
  11.700        308.33	    19.235
  11.720        344.17	    20.322
  11.740        413.33	    22.271
  11.760        463.33	    23.580
  11.780        515.83	    24.880
  11.800        585.00	    26.495
  11.820        596.67	    26.758
  11.840        659.17	    28.125
  11.860        670.83	    28.373
  11.880        635.83	    27.622
  11.900        709.17	    29.172
  11.920        697.50	    28.931
  11.940        772.50	    30.447
  11.960        717.50	    29.343
  11.980        566.67	    26.077
  12.000        414.17	    22.293
  12.020        287.50	    18.574
  12.040        300.00	    18.974
  12.060        233.33	    16.733
  12.080        186.67	    14.967
  12.100        185.83	    14.933
  12.120        188.33	    15.033
  12.140        205.83	    15.716
  12.160        177.50	    14.595
  12.180        147.50	    13.304
  12.200        191.67	    15.166
  12.220        200.83	    15.524
  12.240        194.17	    15.264
  12.260        173.33	    14.422
  12.280        176.67	    14.560
  12.300        152.50	    13.528
  12.320        155.00	    13.638
  12.340        150.00	    13.416
  12.360        161.67	    13.928
  12.380        162.50	    13.964
  12.400        160.00	    13.856
