
Filename:
	C:\Program Files\Thermo Electron\WinXRD\Datafiles\F_HERMAN\GEO\G12_RT.raw

File Created:
	February 21, 2020 - 04:27 PM

Specimen Id:
	G12_RT

Specimen Name:
	

Specimen Description:
	

Comment:
Scan Type: 2Theta Scan
Start Angle: 3 deg.
Stop Angle: 65 deg.
Num Points: 3101
Step Size: 0.02 deg.
Scan Rate: 1.000000
Scan Mode: Continuous
Wavelength: 1.540562
\Kalpha1: 1.540562	\Kalpha2: 1.544390	\Kbeta: 1.392218

Optics:
		Detector:
			 Type: Fixed Slits
		Tube: 
			 Type: Fixed Slits


Datas:
 Pos [deg]       Rate [CPS]      ESD [-]

Range 1 ---> Iteration 1
   3.000        428.33	    22.672
   3.020        462.50	    23.558
   3.040        485.00	    24.125
   3.060        464.17	    23.601
   3.080        435.00	    22.847
   3.100        452.50	    23.302
   3.120        429.17	    22.694
   3.140        434.17	    22.825
   3.160        382.50	    21.424
   3.180        398.33	    21.863
   3.200        400.83	    21.932
   3.220        447.50	    23.173
   3.240        431.67	    22.760
   3.260        412.50	    22.249
   3.280        372.50	    21.142
   3.300        391.67	    21.679
   3.320        396.67	    21.817
   3.340        402.50	    21.977
   3.360        421.67	    22.494
   3.380        430.00	    22.716
   3.400        388.33	    21.587
   3.420        395.83	    21.794
   3.440        369.17	    21.048
   3.460        356.67	    20.688
   3.480        389.17	    21.610
   3.500        386.67	    21.541
   3.520        352.50	    20.567
   3.540        365.00	    20.928
   3.560        419.17	    22.428
   3.580        380.00	    21.354
   3.600        385.00	    21.494
   3.620        388.33	    21.587
   3.640        341.67	    20.248
   3.660        345.83	    20.372
   3.680        359.17	    20.761
   3.700        361.67	    20.833
   3.720        347.50	    20.421
   3.740        360.00	    20.785
   3.760        349.17	    20.469
   3.780        375.00	    21.213
   3.800        364.17	    20.905
   3.820        314.17	    19.416
   3.840        333.33	    20.000
   3.860        355.00	    20.640
   3.880        354.17	    20.616
   3.900        311.67	    19.339
   3.920        330.83	    19.925
   3.940        327.50	    19.824
   3.960        310.83	    19.313
   3.980        298.33	    18.921
   4.000        326.67	    19.799
   4.020        321.67	    19.647
   4.040        318.33	    19.545
   4.060        314.17	    19.416
   4.080        316.67	    19.494
   4.100        324.17	    19.723
   4.120        305.83	    19.157
   4.140        316.67	    19.494
   4.160        306.67	    19.183
   4.180        306.67	    19.183
   4.200        355.83	    20.664
   4.220        330.00	    19.900
   4.240        305.83	    19.157
   4.260        315.00	    19.442
   4.280        316.67	    19.494
   4.300        279.17	    18.303
   4.320        285.00	    18.493
   4.340        307.50	    19.209
   4.360        280.00	    18.330
   4.380        298.33	    18.921
   4.400        281.67	    18.385
   4.420        295.83	    18.841
   4.440        312.50	    19.365
   4.460        282.50	    18.412
   4.480        272.50	    18.083
   4.500        278.33	    18.276
   4.520        263.33	    17.776
   4.540        312.50	    19.365
   4.560        268.33	    17.944
   4.580        268.33	    17.944
   4.600        265.00	    17.833
   4.620        245.00	    17.146
   4.640        265.83	    17.861
   4.660        273.33	    18.111
   4.680        279.17	    18.303
   4.700        279.17	    18.303
   4.720        275.00	    18.166
   4.740        240.00	    16.971
   4.760        258.33	    17.607
   4.780        225.83	    16.462
   4.800        249.17	    17.292
   4.820        272.50	    18.083
   4.840        229.17	    16.583
   4.860        243.33	    17.088
   4.880        260.83	    17.692
   4.900        240.00	    16.971
   4.920        261.67	    17.720
   4.940        271.67	    18.055
   4.960        265.00	    17.833
   4.980        238.33	    16.912
   5.000        244.17	    17.117
   5.020        240.00	    16.971
   5.040        248.33	    17.263
   5.060        253.33	    17.436
   5.080        228.33	    16.553
   5.100        236.67	    16.852
   5.120        233.33	    16.733
   5.140        250.00	    17.321
   5.160        231.67	    16.673
   5.180        230.83	    16.643
   5.200        225.00	    16.432
   5.220        218.33	    16.186
   5.240        220.83	    16.279
   5.260        216.67	    16.125
   5.280        226.67	    16.492
   5.300        225.83	    16.462
   5.320        206.67	    15.748
   5.340        230.83	    16.643
   5.360        248.33	    17.263
   5.380        216.67	    16.125
   5.400        203.33	    15.620
   5.420        235.00	    16.793
   5.440        219.17	    16.217
   5.460        205.83	    15.716
   5.480        214.17	    16.031
   5.500        212.50	    15.969
   5.520        218.33	    16.186
   5.540        214.17	    16.031
   5.560        238.33	    16.912
   5.580        202.50	    15.588
   5.600        219.17	    16.217
   5.620        222.50	    16.340
   5.640        186.67	    14.967
   5.660        228.33	    16.553
   5.680        221.67	    16.310
   5.700        224.17	    16.401
   5.720        207.50	    15.780
   5.740        255.00	    17.493
   5.760        189.17	    15.067
   5.780        202.50	    15.588
   5.800        193.33	    15.232
   5.820        228.33	    16.553
   5.840        210.00	    15.875
   5.860        215.83	    16.093
   5.880        215.83	    16.093
   5.900        234.17	    16.763
   5.920        216.67	    16.125
   5.940        241.67	    17.029
   5.960        222.50	    16.340
   5.980        233.33	    16.733
   6.000        242.50	    17.059
   6.020        224.17	    16.401
   6.040        250.00	    17.321
   6.060        245.00	    17.146
   6.080        289.17	    18.628
   6.100        255.00	    17.493
   6.120        287.50	    18.574
   6.140        291.67	    18.708
   6.160        324.17	    19.723
   6.180        285.83	    18.520
   6.200        299.17	    18.947
   6.220        223.33	    16.371
   6.240        198.33	    15.427
   6.260        217.50	    16.155
   6.280        204.17	    15.652
   6.300        190.00	    15.100
   6.320        220.83	    16.279
   6.340        217.50	    16.155
   6.360        215.83	    16.093
   6.380        212.50	    15.969
   6.400        175.83	    14.526
   6.420        220.83	    16.279
   6.440        190.83	    15.133
   6.460        190.83	    15.133
   6.480        181.67	    14.765
   6.500        198.33	    15.427
   6.520        180.00	    14.697
   6.540        212.50	    15.969
   6.560        167.50	    14.177
   6.580        190.00	    15.100
   6.600        170.83	    14.318
   6.620        191.67	    15.166
   6.640        170.00	    14.283
   6.660        191.67	    15.166
   6.680        185.83	    14.933
   6.700        206.67	    15.748
   6.720        184.17	    14.866
   6.740        211.67	    15.937
   6.760        199.17	    15.460
   6.780        187.50	    15.000
   6.800        192.50	    15.199
   6.820        188.33	    15.033
   6.840        201.67	    15.556
   6.860        188.33	    15.033
   6.880        164.17	    14.036
   6.900        187.50	    15.000
   6.920        194.17	    15.264
   6.940        187.50	    15.000
   6.960        172.50	    14.387
   6.980        175.00	    14.491
   7.000        157.50	    13.748
   7.020        185.83	    14.933
   7.040        176.67	    14.560
   7.060        203.33	    15.620
   7.080        192.50	    15.199
   7.100        174.17	    14.457
   7.120        181.67	    14.765
   7.140        189.17	    15.067
   7.160        172.50	    14.387
   7.180        164.17	    14.036
   7.200        195.83	    15.330
   7.220        162.50	    13.964
   7.240        169.17	    14.248
   7.260        160.83	    13.892
   7.280        178.33	    14.629
   7.300        174.17	    14.457
   7.320        160.00	    13.856
   7.340        163.33	    14.000
   7.360        175.00	    14.491
   7.380        159.17	    13.820
   7.400        148.33	    13.342
   7.420        170.83	    14.318
   7.440        164.17	    14.036
   7.460        155.83	    13.675
   7.480        159.17	    13.820
   7.500        170.83	    14.318
   7.520        162.50	    13.964
   7.540        145.83	    13.229
   7.560        160.83	    13.892
   7.580        166.67	    14.142
   7.600        175.00	    14.491
   7.620        166.67	    14.142
   7.640        154.17	    13.601
   7.660        135.83	    12.767
   7.680        147.50	    13.304
   7.700        144.17	    13.153
   7.720        169.17	    14.248
   7.740        155.00	    13.638
   7.760        154.17	    13.601
   7.780        158.33	    13.784
   7.800        165.83	    14.107
   7.820        156.67	    13.711
   7.840        160.00	    13.856
   7.860        135.83	    12.767
   7.880        144.17	    13.153
   7.900        163.33	    14.000
   7.920        174.17	    14.457
   7.940        168.33	    14.213
   7.960        141.67	    13.038
   7.980        151.67	    13.491
   8.000        161.67	    13.928
   8.020        163.33	    14.000
   8.040        170.83	    14.318
   8.060        128.33	    12.410
   8.080        158.33	    13.784
   8.100        168.33	    14.213
   8.120        170.83	    14.318
   8.140        152.50	    13.528
   8.160        155.00	    13.638
   8.180        150.00	    13.416
   8.200        165.83	    14.107
   8.220        162.50	    13.964
   8.240        145.83	    13.229
   8.260        169.17	    14.248
   8.280        144.17	    13.153
   8.300        167.50	    14.177
   8.320        150.00	    13.416
   8.340        155.83	    13.675
   8.360        176.67	    14.560
   8.380        161.67	    13.928
   8.400        160.00	    13.856
   8.420        159.17	    13.820
   8.440        160.00	    13.856
   8.460        170.83	    14.318
   8.480        165.00	    14.071
   8.500        180.83	    14.731
   8.520        154.17	    13.601
   8.540        180.00	    14.697
   8.560        200.83	    15.524
   8.580        208.33	    15.811
   8.600        217.50	    16.155
   8.620        227.50	    16.523
   8.640        235.00	    16.793
   8.660        280.83	    18.358
   8.680        263.33	    17.776
   8.700        339.17	    20.174
   8.720        332.50	    19.975
   8.740        414.17	    22.293
   8.760        465.00	    23.622
   8.780        600.00	    26.833
   8.800        759.17	    30.183
   8.820        803.33	    31.048
   8.840        713.33	    29.257
   8.860        534.17	    25.318
   8.880        374.17	    21.190
   8.900        251.67	    17.378
   8.920        201.67	    15.556
   8.940        184.17	    14.866
   8.960        167.50	    14.177
   8.980        165.00	    14.071
   9.000        137.50	    12.845
   9.020        184.17	    14.866
   9.040        173.33	    14.422
   9.060        158.33	    13.784
   9.080        163.33	    14.000
   9.100        174.17	    14.457
   9.120        161.67	    13.928
   9.140        165.00	    14.071
   9.160        171.67	    14.353
   9.180        176.67	    14.560
   9.200        127.50	    12.369
   9.220        119.17	    11.958
   9.240        149.17	    13.379
   9.260        130.83	    12.530
   9.280        135.83	    12.767
   9.300        140.83	    13.000
   9.320        143.33	    13.115
   9.340        147.50	    13.304
   9.360        171.67	    14.353
   9.380        146.67	    13.266
   9.400        150.00	    13.416
   9.420        153.33	    13.565
   9.440        135.83	    12.767
   9.460        136.67	    12.806
   9.480        140.83	    13.000
   9.500        109.17	    11.446
   9.520        128.33	    12.410
   9.540        126.67	    12.329
   9.560        127.50	    12.369
   9.580        130.00	    12.490
   9.600        110.00	    11.489
   9.620         95.00	    10.677
   9.640        130.00	    12.490
   9.660        142.50	    13.077
   9.680        150.00	    13.416
   9.700        116.67	    11.832
   9.720        136.67	    12.806
   9.740        165.00	    14.071
   9.760        153.33	    13.565
   9.780        116.67	    11.832
   9.800        120.83	    12.042
   9.820        120.00	    12.000
   9.840        116.67	    11.832
   9.860        126.67	    12.329
   9.880        117.50	    11.874
   9.900        125.83	    12.288
   9.920        135.83	    12.767
   9.940        115.00	    11.747
   9.960        114.17	    11.705
   9.980        106.67	    11.314
  10.000        121.67	    12.083
  10.020        104.17	    11.180
  10.040        110.83	    11.533
  10.060        101.67	    11.045
  10.080        124.17	    12.207
  10.100        135.83	    12.767
  10.120         97.50	    10.817
  10.140        107.50	    11.358
  10.160        108.33	    11.402
  10.180        111.67	    11.576
  10.200        114.17	    11.705
  10.220        115.83	    11.790
  10.240        110.83	    11.533
  10.260        110.00	    11.489
  10.280        108.33	    11.402
  10.300        114.17	    11.705
  10.320        136.67	    12.806
  10.340        116.67	    11.832
  10.360        135.00	    12.728
  10.380        116.67	    11.832
  10.400        129.17	    12.450
  10.420        153.33	    13.565
  10.440        163.33	    14.000
  10.460        166.67	    14.142
  10.480        169.17	    14.248
  10.500        182.50	    14.799
  10.520        146.67	    13.266
  10.540        140.83	    13.000
  10.560        105.00	    11.225
  10.580        103.33	    11.136
  10.600        108.33	    11.402
  10.620        115.83	    11.790
  10.640        114.17	    11.705
  10.660        123.33	    12.166
  10.680         94.17	    10.630
  10.700        120.00	    12.000
  10.720        102.50	    11.091
  10.740        100.83	    11.000
  10.760        112.50	    11.619
  10.780         94.17	    10.630
  10.800        113.33	    11.662
  10.820        130.00	    12.490
  10.840        103.33	    11.136
  10.860        111.67	    11.576
  10.880        103.33	    11.136
  10.900        100.00	    10.954
  10.920        115.83	    11.790
  10.940        104.17	    11.180
  10.960        135.83	    12.767
  10.980        130.83	    12.530
  11.000        100.00	    10.954
  11.020        100.83	    11.000
  11.040        102.50	    11.091
  11.060         94.17	    10.630
  11.080         95.00	    10.677
  11.100        105.83	    11.269
  11.120        115.00	    11.747
  11.140        103.33	    11.136
  11.160         84.17	    10.050
  11.180        113.33	    11.662
  11.200         89.17	    10.344
  11.220         91.67	    10.488
  11.240         95.00	    10.677
  11.260        108.33	    11.402
  11.280        113.33	    11.662
  11.300         93.33	    10.583
  11.320         96.67	    10.770
  11.340        106.67	    11.314
  11.360         91.67	    10.488
  11.380        114.17	    11.705
  11.400        108.33	    11.402
  11.420         93.33	    10.583
  11.440         99.17	    10.909
  11.460        110.00	    11.489
  11.480        110.83	    11.533
  11.500        105.83	    11.269
  11.520        115.83	    11.790
  11.540        100.00	    10.954
  11.560        115.00	    11.747
  11.580         96.67	    10.770
  11.600         95.00	    10.677
  11.620        114.17	    11.705
  11.640        125.83	    12.288
  11.660        107.50	    11.358
  11.680        127.50	    12.369
  11.700        100.83	    11.000
  11.720         92.50	    10.536
  11.740         86.67	    10.198
  11.760         90.83	    10.440
  11.780        115.00	    11.747
  11.800         95.83	    10.724
  11.820        107.50	    11.358
  11.840        114.17	    11.705
  11.860        115.00	    11.747
  11.880        135.00	    12.728
  11.900        103.33	    11.136
  11.920        113.33	    11.662
  11.940        117.50	    11.874
  11.960        130.83	    12.530
  11.980        141.67	    13.038
  12.000        158.33	    13.784
  12.020        177.50	    14.595
  12.040        202.50	    15.588
  12.060        207.50	    15.780
  12.080        276.67	    18.221
  12.100        378.33	    21.307
  12.120        529.17	    25.199
  12.140        615.83	    27.185
  12.160        498.33	    24.454
  12.180        392.50	    21.703
  12.200        291.67	    18.708
  12.220        250.83	    17.349
  12.240        207.50	    15.780
  12.260        239.17	    16.941
  12.280        272.50	    18.083
  12.300        267.50	    17.916
  12.320        240.83	    17.000
  12.340        241.67	    17.029
  12.360        286.67	    18.547
  12.380        262.50	    17.748
  12.400        305.00	    19.131
  12.420        374.17	    21.190
  12.440        387.50	    21.564
  12.460        385.00	    21.494
  12.480        284.17	    18.466
  12.500        197.50	    15.395
  12.520        125.83	    12.288
  12.540        120.00	    12.000
  12.560        120.00	    12.000
  12.580        104.17	    11.180
  12.600        115.83	    11.790
  12.620        100.83	    11.000
  12.640         93.33	    10.583
  12.660         98.33	    10.863
  12.680        102.50	    11.091
  12.700        100.83	    11.000
  12.720         77.50	     9.644
  12.740        109.17	    11.446
  12.760         98.33	    10.863
  12.780        115.00	    11.747
  12.800         98.33	    10.863
  12.820         89.17	    10.344
  12.840         80.83	     9.849
  12.860         93.33	    10.583
  12.880         88.33	    10.296
  12.900         73.33	     9.381
  12.920         82.50	     9.950
  12.940         99.17	    10.909
  12.960         88.33	    10.296
  12.980         90.00	    10.392
  13.000         90.00	    10.392
  13.020         89.17	    10.344
  13.040         90.00	    10.392
  13.060         80.00	     9.798
  13.080         94.17	    10.630
  13.100         87.50	    10.247
  13.120         76.67	     9.592
  13.140         98.33	    10.863
  13.160        101.67	    11.045
  13.180         90.00	    10.392
  13.200         96.67	    10.770
  13.220         91.67	    10.488
  13.240         98.33	    10.863
  13.260         90.00	    10.392
  13.280         85.00	    10.100
  13.300         94.17	    10.630
  13.320         98.33	    10.863
  13.340         88.33	    10.296
  13.360         94.17	    10.630
  13.380         85.83	    10.149
  13.400         82.50	     9.950
  13.420         88.33	    10.296
  13.440         73.33	     9.381
  13.460         94.17	    10.630
  13.480         94.17	    10.630
  13.500         78.33	     9.695
  13.520         81.67	     9.899
  13.540         88.33	    10.296
  13.560         89.17	    10.344
  13.580         92.50	    10.536
  13.600         99.17	    10.909
  13.620        100.00	    10.954
  13.640         92.50	    10.536
  13.660         74.17	     9.434
  13.680         95.83	    10.724
  13.700         88.33	    10.296
  13.720         94.17	    10.630
  13.740        102.50	    11.091
  13.760         92.50	    10.536
  13.780        125.00	    12.247
  13.800        119.17	    11.958
  13.820        109.17	    11.446
  13.840        105.00	    11.225
  13.860        118.33	    11.916
  13.880         82.50	     9.950
  13.900        100.00	    10.954
  13.920         89.17	    10.344
  13.940         94.17	    10.630
  13.960         90.83	    10.440
  13.980         85.83	    10.149
  14.000         80.83	     9.849
  14.020         88.33	    10.296
  14.040         75.00	     9.487
  14.060         85.83	    10.149
  14.080         86.67	    10.198
  14.100         77.50	     9.644
  14.120         82.50	     9.950
  14.140         79.17	     9.747
  14.160         77.50	     9.644
  14.180         81.67	     9.899
  14.200         83.33	    10.000
  14.220         80.83	     9.849
  14.240         72.50	     9.327
  14.260         77.50	     9.644
  14.280         72.50	     9.327
  14.300         81.67	     9.899
  14.320         80.83	     9.849
  14.340         68.33	     9.055
  14.360         72.50	     9.327
  14.380         63.33	     8.718
  14.400         75.83	     9.539
