
Filename:
	C:\Program Files\Thermo Electron\WinXRD\Datafiles\F_HERMAN\FIEN\G13_RT.raw

File Created:
	January 30, 2020 - 01:23 PM

Specimen Id:
	G13 RT

Specimen Name:
	

Specimen Description:
	

Comment:
Scan Type: 2Theta Scan
Start Angle: 3 deg.
Stop Angle: 65 deg.
Num Points: 3101
Step Size: 0.02 deg.
Scan Rate: 1.000000
Scan Mode: Continuous
Wavelength: 1.540562
\Kalpha1: 1.540562	\Kalpha2: 1.544390	\Kbeta: 1.392218

Optics:
		Detector:
			 Type: Fixed Slits
		Tube: 
			 Type: Fixed Slits


Datas:
 Pos [deg]       Rate [CPS]      ESD [-]

Range 1 ---> Iteration 1
   3.000        495.00	    24.372
   3.020        430.83	    22.738
   3.040        419.17	    22.428
   3.060        484.17	    24.104
   3.080        493.33	    24.331
   3.100        430.83	    22.738
   3.120        439.17	    22.956
   3.140        450.83	    23.259
   3.160        440.83	    23.000
   3.180        450.83	    23.259
   3.200        414.17	    22.293
   3.220        425.00	    22.583
   3.240        415.83	    22.338
   3.260        426.67	    22.627
   3.280        404.17	    22.023
   3.300        415.83	    22.338
   3.320        415.00	    22.316
   3.340        421.67	    22.494
   3.360        401.67	    21.954
   3.380        424.17	    22.561
   3.400        401.67	    21.954
   3.420        443.33	    23.065
   3.440        382.50	    21.424
   3.460        375.00	    21.213
   3.480        400.83	    21.932
   3.500        406.67	    22.091
   3.520        382.50	    21.424
   3.540        381.67	    21.401
   3.560        395.83	    21.794
   3.580        410.83	    22.204
   3.600        350.83	    20.518
   3.620        350.83	    20.518
   3.640        367.50	    21.000
   3.660        378.33	    21.307
   3.680        390.83	    21.656
   3.700        396.67	    21.817
   3.720        366.67	    20.976
   3.740        371.67	    21.119
   3.760        360.83	    20.809
   3.780        372.50	    21.142
   3.800        353.33	    20.591
   3.820        355.00	    20.640
   3.840        352.50	    20.567
   3.860        370.83	    21.095
   3.880        335.83	    20.075
   3.900        357.50	    20.712
   3.920        352.50	    20.567
   3.940        351.67	    20.543
   3.960        335.83	    20.075
   3.980        323.33	    19.698
   4.000        336.67	    20.100
   4.020        340.00	    20.199
   4.040        315.83	    19.468
   4.060        346.67	    20.396
   4.080        338.33	    20.149
   4.100        324.17	    19.723
   4.120        306.67	    19.183
   4.140        324.17	    19.723
   4.160        302.50	    19.053
   4.180        305.83	    19.157
   4.200        290.83	    18.682
   4.220        298.33	    18.921
   4.240        322.50	    19.672
   4.260        310.83	    19.313
   4.280        280.00	    18.330
   4.300        281.67	    18.385
   4.320        300.00	    18.974
   4.340        292.50	    18.735
   4.360        318.33	    19.545
   4.380        313.33	    19.391
   4.400        309.17	    19.261
   4.420        294.17	    18.788
   4.440        321.67	    19.647
   4.460        268.33	    17.944
   4.480        282.50	    18.412
   4.500        289.17	    18.628
   4.520        295.83	    18.841
   4.540        266.67	    17.889
   4.560        293.33	    18.762
   4.580        277.50	    18.248
   4.600        310.00	    19.287
   4.620        281.67	    18.385
   4.640        262.50	    17.748
   4.660        303.33	    19.079
   4.680        290.83	    18.682
   4.700        265.00	    17.833
   4.720        256.67	    17.550
   4.740        262.50	    17.748
   4.760        260.83	    17.692
   4.780        250.83	    17.349
   4.800        267.50	    17.916
   4.820        259.17	    17.635
   4.840        260.83	    17.692
   4.860        258.33	    17.607
   4.880        258.33	    17.607
   4.900        247.50	    17.234
   4.920        275.83	    18.193
   4.940        260.00	    17.664
   4.960        245.00	    17.146
   4.980        229.17	    16.583
   5.000        250.00	    17.321
   5.020        260.00	    17.664
   5.040        255.00	    17.493
   5.060        247.50	    17.234
   5.080        264.17	    17.804
   5.100        276.67	    18.221
   5.120        287.50	    18.574
   5.140        249.17	    17.292
   5.160        266.67	    17.889
   5.180        238.33	    16.912
   5.200        255.83	    17.521
   5.220        263.33	    17.776
   5.240        223.33	    16.371
   5.260        259.17	    17.635
   5.280        215.83	    16.093
   5.300        250.00	    17.321
   5.320        235.00	    16.793
   5.340        242.50	    17.059
   5.360        218.33	    16.186
   5.380        198.33	    15.427
   5.400        230.83	    16.643
   5.420        215.00	    16.062
   5.440        223.33	    16.371
   5.460        230.00	    16.613
   5.480        244.17	    17.117
   5.500        232.50	    16.703
   5.520        235.83	    16.823
   5.540        224.17	    16.401
   5.560        243.33	    17.088
   5.580        245.00	    17.146
   5.600        237.50	    16.882
   5.620        232.50	    16.703
   5.640        200.83	    15.524
   5.660        221.67	    16.310
   5.680        234.17	    16.763
   5.700        228.33	    16.553
   5.720        203.33	    15.620
   5.740        220.00	    16.248
   5.760        255.83	    17.521
   5.780        230.00	    16.613
   5.800        200.00	    15.492
   5.820        237.50	    16.882
   5.840        222.50	    16.340
   5.860        216.67	    16.125
   5.880        238.33	    16.912
   5.900        263.33	    17.776
   5.920        221.67	    16.310
   5.940        240.83	    17.000
   5.960        230.00	    16.613
   5.980        225.00	    16.432
   6.000        251.67	    17.378
   6.020        240.00	    16.971
   6.040        239.17	    16.941
   6.060        247.50	    17.234
   6.080        258.33	    17.607
   6.100        255.83	    17.521
   6.120        283.33	    18.439
   6.140        291.67	    18.708
   6.160        247.50	    17.234
   6.180        220.83	    16.279
   6.200        228.33	    16.553
   6.220        235.83	    16.823
   6.240        220.83	    16.279
   6.260        219.17	    16.217
   6.280        195.83	    15.330
   6.300        220.00	    16.248
   6.320        228.33	    16.553
   6.340        212.50	    15.969
   6.360        196.67	    15.362
   6.380        195.83	    15.330
   6.400        220.00	    16.248
   6.420        220.83	    16.279
   6.440        225.83	    16.462
   6.460        213.33	    16.000
   6.480        174.17	    14.457
   6.500        192.50	    15.199
   6.520        199.17	    15.460
   6.540        195.83	    15.330
   6.560        218.33	    16.186
   6.580        197.50	    15.395
   6.600        210.00	    15.875
   6.620        193.33	    15.232
   6.640        179.17	    14.663
   6.660        195.00	    15.297
   6.680        192.50	    15.199
   6.700        181.67	    14.765
   6.720        180.00	    14.697
   6.740        190.00	    15.100
   6.760        216.67	    16.125
   6.780        160.00	    13.856
   6.800        181.67	    14.765
   6.820        189.17	    15.067
   6.840        193.33	    15.232
   6.860        219.17	    16.217
   6.880        176.67	    14.560
   6.900        180.83	    14.731
   6.920        187.50	    15.000
   6.940        193.33	    15.232
   6.960        217.50	    16.155
   6.980        207.50	    15.780
   7.000        190.00	    15.100
   7.020        173.33	    14.422
   7.040        191.67	    15.166
   7.060        195.83	    15.330
   7.080        166.67	    14.142
   7.100        180.83	    14.731
   7.120        171.67	    14.353
   7.140        173.33	    14.422
   7.160        173.33	    14.422
   7.180        178.33	    14.629
   7.200        158.33	    13.784
   7.220        192.50	    15.199
   7.240        191.67	    15.166
   7.260        168.33	    14.213
   7.280        175.83	    14.526
   7.300        174.17	    14.457
   7.320        183.33	    14.832
   7.340        181.67	    14.765
   7.360        167.50	    14.177
   7.380        160.83	    13.892
   7.400        160.83	    13.892
   7.420        180.00	    14.697
   7.440        173.33	    14.422
   7.460        181.67	    14.765
   7.480        170.00	    14.283
   7.500        171.67	    14.353
   7.520        159.17	    13.820
   7.540        170.83	    14.318
   7.560        163.33	    14.000
   7.580        175.00	    14.491
   7.600        148.33	    13.342
   7.620        166.67	    14.142
   7.640        180.00	    14.697
   7.660        169.17	    14.248
   7.680        140.00	    12.961
   7.700        160.83	    13.892
   7.720        155.00	    13.638
   7.740        139.17	    12.923
   7.760        171.67	    14.353
   7.780        140.83	    13.000
   7.800        135.83	    12.767
   7.820        152.50	    13.528
   7.840        162.50	    13.964
   7.860        152.50	    13.528
   7.880        160.83	    13.892
   7.900        171.67	    14.353
   7.920        147.50	    13.304
   7.940        176.67	    14.560
   7.960        151.67	    13.491
   7.980        152.50	    13.528
   8.000        141.67	    13.038
   8.020        160.00	    13.856
   8.040        160.00	    13.856
   8.060        153.33	    13.565
   8.080        159.17	    13.820
   8.100        173.33	    14.422
   8.120        183.33	    14.832
   8.140        165.00	    14.071
   8.160        151.67	    13.491
   8.180        156.67	    13.711
   8.200        163.33	    14.000
   8.220        147.50	    13.304
   8.240        151.67	    13.491
   8.260        160.83	    13.892
   8.280        176.67	    14.560
   8.300        143.33	    13.115
   8.320        169.17	    14.248
   8.340        165.83	    14.107
   8.360        166.67	    14.142
   8.380        155.83	    13.675
   8.400        155.83	    13.675
   8.420        159.17	    13.820
   8.440        184.17	    14.866
   8.460        160.83	    13.892
   8.480        167.50	    14.177
   8.500        199.17	    15.460
   8.520        190.83	    15.133
   8.540        215.00	    16.062
   8.560        186.67	    14.967
   8.580        223.33	    16.371
   8.600        204.17	    15.652
   8.620        266.67	    17.889
   8.640        260.00	    17.664
   8.660        288.33	    18.601
   8.680        315.83	    19.468
   8.700        340.83	    20.224
   8.720        340.00	    20.199
   8.740        488.33	    24.207
   8.760        705.83	    29.103
   8.780        884.17	    32.573
   8.800        725.83	    29.513
   8.820        446.67	    23.152
   8.840        238.33	    16.912
   8.860        190.83	    15.133
   8.880        185.00	    14.900
   8.900        174.17	    14.457
   8.920        142.50	    13.077
   8.940        165.83	    14.107
   8.960        161.67	    13.928
   8.980        162.50	    13.964
   9.000        161.67	    13.928
   9.020        141.67	    13.038
   9.040        163.33	    14.000
   9.060        158.33	    13.784
   9.080        152.50	    13.528
   9.100        140.00	    12.961
   9.120        134.17	    12.689
   9.140        146.67	    13.266
   9.160        145.00	    13.191
   9.180        165.83	    14.107
   9.200        146.67	    13.266
   9.220        112.50	    11.619
   9.240        135.00	    12.728
   9.260        150.83	    13.454
   9.280        172.50	    14.387
   9.300        151.67	    13.491
   9.320        155.83	    13.675
   9.340        162.50	    13.964
   9.360        160.00	    13.856
   9.380        154.17	    13.601
   9.400        129.17	    12.450
   9.420        120.83	    12.042
   9.440        134.17	    12.689
   9.460        128.33	    12.410
   9.480        127.50	    12.369
   9.500        110.83	    11.533
   9.520        113.33	    11.662
   9.540        100.00	    10.954
   9.560        140.00	    12.961
   9.580        117.50	    11.874
   9.600        135.00	    12.728
   9.620        127.50	    12.369
   9.640        130.00	    12.490
   9.660        117.50	    11.874
   9.680        140.83	    13.000
   9.700        121.67	    12.083
   9.720        125.00	    12.247
   9.740        128.33	    12.410
   9.760        110.83	    11.533
   9.780        119.17	    11.958
   9.800        112.50	    11.619
   9.820        120.83	    12.042
   9.840        126.67	    12.329
   9.860        110.00	    11.489
   9.880        118.33	    11.916
   9.900        103.33	    11.136
   9.920        128.33	    12.410
   9.940        103.33	    11.136
   9.960        130.00	    12.490
   9.980        129.17	    12.450
  10.000        115.00	    11.747
  10.020        100.00	    10.954
  10.040        115.83	    11.790
  10.060        135.00	    12.728
  10.080        135.83	    12.767
  10.100        104.17	    11.180
  10.120        124.17	    12.207
  10.140        119.17	    11.958
  10.160        105.83	    11.269
  10.180        120.83	    12.042
  10.200        118.33	    11.916
  10.220        101.67	    11.045
  10.240        120.00	    12.000
  10.260        110.00	    11.489
  10.280        108.33	    11.402
  10.300        123.33	    12.166
  10.320        115.83	    11.790
  10.340        124.17	    12.207
  10.360        175.00	    14.491
  10.380        199.17	    15.460
  10.400        215.00	    16.062
  10.420        174.17	    14.457
  10.440        125.83	    12.288
  10.460        117.50	    11.874
  10.480        118.33	    11.916
  10.500        106.67	    11.314
  10.520        111.67	    11.576
  10.540        110.00	    11.489
  10.560        100.00	    10.954
  10.580        120.00	    12.000
  10.600         94.17	    10.630
  10.620         99.17	    10.909
  10.640         88.33	    10.296
  10.660        117.50	    11.874
  10.680         83.33	    10.000
  10.700        115.00	    11.747
  10.720        113.33	    11.662
  10.740        110.83	    11.533
  10.760        100.00	    10.954
  10.780        105.00	    11.225
  10.800        100.83	    11.000
  10.820        110.00	    11.489
  10.840        100.00	    10.954
  10.860        123.33	    12.166
  10.880        100.83	    11.000
  10.900        104.17	    11.180
  10.920        103.33	    11.136
  10.940         88.33	    10.296
  10.960        118.33	    11.916
  10.980         93.33	    10.583
  11.000        111.67	    11.576
  11.020        110.00	    11.489
  11.040        135.00	    12.728
  11.060        103.33	    11.136
  11.080         88.33	    10.296
  11.100        115.00	    11.747
  11.120         91.67	    10.488
  11.140        113.33	    11.662
  11.160         95.83	    10.724
  11.180        100.83	    11.000
  11.200         97.50	    10.817
  11.220         91.67	    10.488
  11.240        106.67	    11.314
  11.260        102.50	    11.091
  11.280        130.00	    12.490
  11.300        106.67	    11.314
  11.320        111.67	    11.576
  11.340        110.00	    11.489
  11.360        103.33	    11.136
  11.380        101.67	    11.045
  11.400        115.83	    11.790
  11.420        103.33	    11.136
  11.440        109.17	    11.446
  11.460        100.83	    11.000
  11.480        108.33	    11.402
  11.500        105.00	    11.225
  11.520        100.00	    10.954
  11.540        105.00	    11.225
  11.560         95.83	    10.724
  11.580        112.50	    11.619
  11.600        100.00	    10.954
  11.620         84.17	    10.050
  11.640        101.67	    11.045
  11.660        106.67	    11.314
  11.680        101.67	    11.045
  11.700        106.67	    11.314
  11.720        106.67	    11.314
  11.740        100.83	    11.000
  11.760        105.00	    11.225
  11.780         95.83	    10.724
  11.800        114.17	    11.705
  11.820        103.33	    11.136
  11.840        105.83	    11.269
  11.860        132.50	    12.610
  11.880        115.83	    11.790
  11.900        122.50	    12.124
  11.920        121.67	    12.083
  11.940        138.33	    12.884
  11.960        166.67	    14.142
  11.980        197.50	    15.395
  12.000        330.83	    19.925
  12.020        449.17	    23.216
  12.040        435.00	    22.847
  12.060        425.00	    22.583
  12.080        386.67	    21.541
  12.100        305.00	    19.131
  12.120        234.17	    16.763
  12.140        177.50	    14.595
  12.160        165.00	    14.071
  12.180        174.17	    14.457
  12.200        180.83	    14.731
  12.220        178.33	    14.629
  12.240        209.17	    15.843
  12.260        210.00	    15.875
  12.280        225.83	    16.462
  12.300        179.17	    14.663
  12.320        185.00	    14.900
  12.340        233.33	    16.733
  12.360        290.00	    18.655
  12.380        320.83	    19.621
  12.400        300.83	    19.000
  12.420        250.83	    17.349
  12.440        190.83	    15.133
  12.460        150.00	    13.416
  12.480        110.83	    11.533
  12.500         95.83	    10.724
  12.520        105.83	    11.269
  12.540        105.83	    11.269
  12.560        100.00	    10.954
  12.580        101.67	    11.045
  12.600        100.00	    10.954
  12.620         98.33	    10.863
  12.640         96.67	    10.770
  12.660        107.50	    11.358
  12.680        107.50	    11.358
  12.700         90.83	    10.440
  12.720         95.00	    10.677
  12.740         96.67	    10.770
  12.760         90.00	    10.392
  12.780         85.00	    10.100
  12.800         95.83	    10.724
  12.820         86.67	    10.198
  12.840         69.17	     9.110
  12.860         85.83	    10.149
  12.880         87.50	    10.247
  12.900         75.83	     9.539
  12.920         84.17	    10.050
  12.940         85.83	    10.149
  12.960        102.50	    11.091
  12.980         86.67	    10.198
  13.000         86.67	    10.198
  13.020         93.33	    10.583
  13.040         94.17	    10.630
  13.060         78.33	     9.695
  13.080         95.00	    10.677
  13.100         92.50	    10.536
  13.120         83.33	    10.000
  13.140         80.00	     9.798
  13.160         77.50	     9.644
  13.180         89.17	    10.344
  13.200         99.17	    10.909
  13.220         81.67	     9.899
  13.240         87.50	    10.247
  13.260        107.50	    11.358
  13.280         85.83	    10.149
  13.300         93.33	    10.583
  13.320         81.67	     9.899
  13.340         90.00	    10.392
  13.360         82.50	     9.950
  13.380         92.50	    10.536
  13.400         87.50	    10.247
  13.420         80.00	     9.798
  13.440         82.50	     9.950
  13.460         75.83	     9.539
  13.480         78.33	     9.695
  13.500         85.00	    10.100
  13.520        100.83	    11.000
  13.540         98.33	    10.863
  13.560        102.50	    11.091
  13.580        103.33	    11.136
  13.600         89.17	    10.344
  13.620         84.17	    10.050
  13.640         78.33	     9.695
  13.660         92.50	    10.536
  13.680         96.67	    10.770
  13.700         81.67	     9.899
  13.720         97.50	    10.817
  13.740         99.17	    10.909
  13.760         98.33	    10.863
  13.780        110.83	    11.533
  13.800         90.00	    10.392
  13.820         85.83	    10.149
  13.840         85.00	    10.100
  13.860         76.67	     9.592
  13.880         83.33	    10.000
  13.900         90.83	    10.440
  13.920         88.33	    10.296
  13.940         84.17	    10.050
  13.960         74.17	     9.434
  13.980         65.00	     8.832
  14.000         85.83	    10.149
  14.020         83.33	    10.000
  14.040         74.17	     9.434
  14.060         73.33	     9.381
  14.080         95.83	    10.724
  14.100         83.33	    10.000
  14.120         75.83	     9.539
  14.140         76.67	     9.592
  14.160         81.67	     9.899
  14.180         65.83	     8.888
  14.200         72.50	     9.327
  14.220         97.50	    10.817
  14.240         79.17	     9.747
  14.260         70.83	     9.220
  14.280         87.50	    10.247
  14.300         67.50	     9.000
  14.320         64.17	     8.775
  14.340         78.33	     9.695
  14.360         85.00	    10.100
  14.380         75.83	     9.539
  14.400         68.33	     9.055
