
Filename:
	C:\Program Files\Thermo Electron\WinXRD\Datafiles\F_HERMAN\FIEN\G14_A_BIS_RT.raw

File Created:
	January 30, 2020 - 11:40 AM

Specimen Id:
	G14 A RT

Specimen Name:
	

Specimen Description:
	

Comment:
Scan Type: 2Theta Scan
Start Angle: 3 deg.
Stop Angle: 65 deg.
Num Points: 3101
Step Size: 0.02 deg.
Scan Rate: 1.000000
Scan Mode: Continuous
Wavelength: 1.540562
\Kalpha1: 1.540562	\Kalpha2: 1.544390	\Kbeta: 1.392218

Optics:
		Detector:
			 Type: Fixed Slits
		Tube: 
			 Type: Fixed Slits


Datas:
 Pos [deg]       Rate [CPS]      ESD [-]

Range 1 ---> Iteration 1
   3.000        504.17	    24.597
   3.020        427.50	    22.650
   3.040        460.00	    23.495
   3.060        447.50	    23.173
   3.080        467.50	    23.685
   3.100        459.17	    23.473
   3.120        429.17	    22.694
   3.140        403.33	    22.000
   3.160        445.83	    23.130
   3.180        403.33	    22.000
   3.200        436.67	    22.891
   3.220        432.50	    22.782
   3.240        412.50	    22.249
   3.260        428.33	    22.672
   3.280        386.67	    21.541
   3.300        396.67	    21.817
   3.320        415.83	    22.338
   3.340        404.17	    22.023
   3.360        370.83	    21.095
   3.380        435.00	    22.847
   3.400        369.17	    21.048
   3.420        395.00	    21.772
   3.440        425.83	    22.605
   3.460        360.83	    20.809
   3.480        400.83	    21.932
   3.500        371.67	    21.119
   3.520        348.33	    20.445
   3.540        393.33	    21.726
   3.560        370.83	    21.095
   3.580        373.33	    21.166
   3.600        361.67	    20.833
   3.620        365.83	    20.952
   3.640        366.67	    20.976
   3.660        371.67	    21.119
   3.680        371.67	    21.119
   3.700        331.67	    19.950
   3.720        324.17	    19.723
   3.740        350.00	    20.494
   3.760        336.67	    20.100
   3.780        340.83	    20.224
   3.800        340.00	    20.199
   3.820        340.00	    20.199
   3.840        334.17	    20.025
   3.860        351.67	    20.543
   3.880        330.00	    19.900
   3.900        335.83	    20.075
   3.920        289.17	    18.628
   3.940        332.50	    19.975
   3.960        350.00	    20.494
   3.980        323.33	    19.698
   4.000        335.00	    20.050
   4.020        339.17	    20.174
   4.040        359.17	    20.761
   4.060        301.67	    19.026
   4.080        316.67	    19.494
   4.100        308.33	    19.235
   4.120        300.00	    18.974
   4.140        330.83	    19.925
   4.160        315.00	    19.442
   4.180        332.50	    19.975
   4.200        305.00	    19.131
   4.220        312.50	    19.365
   4.240        315.00	    19.442
   4.260        283.33	    18.439
   4.280        296.67	    18.868
   4.300        321.67	    19.647
   4.320        262.50	    17.748
   4.340        306.67	    19.183
   4.360        280.00	    18.330
   4.380        320.00	    19.596
   4.400        314.17	    19.416
   4.420        270.00	    18.000
   4.440        304.17	    19.105
   4.460        276.67	    18.221
   4.480        290.00	    18.655
   4.500        297.50	    18.894
   4.520        262.50	    17.748
   4.540        256.67	    17.550
   4.560        254.17	    17.464
   4.580        284.17	    18.466
   4.600        299.17	    18.947
   4.620        307.50	    19.209
   4.640        247.50	    17.234
   4.660        277.50	    18.248
   4.680        291.67	    18.708
   4.700        266.67	    17.889
   4.720        254.17	    17.464
   4.740        272.50	    18.083
   4.760        268.33	    17.944
   4.780        250.83	    17.349
   4.800        255.83	    17.521
   4.820        260.83	    17.692
   4.840        270.00	    18.000
   4.860        264.17	    17.804
   4.880        270.00	    18.000
   4.900        240.00	    16.971
   4.920        235.00	    16.793
   4.940        245.83	    17.176
   4.960        265.83	    17.861
   4.980        250.00	    17.321
   5.000        276.67	    18.221
   5.020        260.83	    17.692
   5.040        233.33	    16.733
   5.060        257.50	    17.578
   5.080        254.17	    17.464
   5.100        285.00	    18.493
   5.120        259.17	    17.635
   5.140        232.50	    16.703
   5.160        214.17	    16.031
   5.180        221.67	    16.310
   5.200        230.83	    16.643
   5.220        248.33	    17.263
   5.240        241.67	    17.029
   5.260        207.50	    15.780
   5.280        234.17	    16.763
   5.300        213.33	    16.000
   5.320        210.00	    15.875
   5.340        242.50	    17.059
   5.360        236.67	    16.852
   5.380        250.83	    17.349
   5.400        241.67	    17.029
   5.420        231.67	    16.673
   5.440        227.50	    16.523
   5.460        245.00	    17.146
   5.480        216.67	    16.125
   5.500        215.00	    16.062
   5.520        219.17	    16.217
   5.540        213.33	    16.000
   5.560        219.17	    16.217
   5.580        212.50	    15.969
   5.600        201.67	    15.556
   5.620        214.17	    16.031
   5.640        214.17	    16.031
   5.660        243.33	    17.088
   5.680        235.00	    16.793
   5.700        216.67	    16.125
   5.720        210.00	    15.875
   5.740        242.50	    17.059
   5.760        223.33	    16.371
   5.780        255.83	    17.521
   5.800        204.17	    15.652
   5.820        209.17	    15.843
   5.840        245.00	    17.146
   5.860        217.50	    16.155
   5.880        253.33	    17.436
   5.900        237.50	    16.882
   5.920        249.17	    17.292
   5.940        261.67	    17.720
   5.960        252.50	    17.407
   5.980        249.17	    17.292
   6.000        235.83	    16.823
   6.020        258.33	    17.607
   6.040        290.00	    18.655
   6.060        282.50	    18.412
   6.080        283.33	    18.439
   6.100        292.50	    18.735
   6.120        309.17	    19.261
   6.140        333.33	    20.000
   6.160        302.50	    19.053
   6.180        309.17	    19.261
   6.200        244.17	    17.117
   6.220        241.67	    17.029
   6.240        230.00	    16.613
   6.260        192.50	    15.199
   6.280        190.83	    15.133
   6.300        210.00	    15.875
   6.320        216.67	    16.125
   6.340        203.33	    15.620
   6.360        202.50	    15.588
   6.380        230.00	    16.613
   6.400        210.83	    15.906
   6.420        196.67	    15.362
   6.440        203.33	    15.620
   6.460        189.17	    15.067
   6.480        207.50	    15.780
   6.500        218.33	    16.186
   6.520        185.00	    14.900
   6.540        172.50	    14.387
   6.560        192.50	    15.199
   6.580        171.67	    14.353
   6.600        193.33	    15.232
   6.620        200.00	    15.492
   6.640        175.00	    14.491
   6.660        181.67	    14.765
   6.680        193.33	    15.232
   6.700        210.00	    15.875
   6.720        183.33	    14.832
   6.740        191.67	    15.166
   6.760        201.67	    15.556
   6.780        220.00	    16.248
   6.800        197.50	    15.395
   6.820        170.83	    14.318
   6.840        200.00	    15.492
   6.860        184.17	    14.866
   6.880        210.00	    15.875
   6.900        170.83	    14.318
   6.920        160.83	    13.892
   6.940        182.50	    14.799
   6.960        190.00	    15.100
   6.980        185.83	    14.933
   7.000        172.50	    14.387
   7.020        175.83	    14.526
   7.040        166.67	    14.142
   7.060        168.33	    14.213
   7.080        167.50	    14.177
   7.100        205.83	    15.716
   7.120        183.33	    14.832
   7.140        177.50	    14.595
   7.160        165.83	    14.107
   7.180        174.17	    14.457
   7.200        173.33	    14.422
   7.220        150.00	    13.416
   7.240        178.33	    14.629
   7.260        174.17	    14.457
   7.280        157.50	    13.748
   7.300        145.00	    13.191
   7.320        188.33	    15.033
   7.340        170.83	    14.318
   7.360        164.17	    14.036
   7.380        176.67	    14.560
   7.400        160.83	    13.892
   7.420        168.33	    14.213
   7.440        170.00	    14.283
   7.460        155.83	    13.675
   7.480        163.33	    14.000
   7.500        130.00	    12.490
   7.520        170.00	    14.283
   7.540        169.17	    14.248
   7.560        162.50	    13.964
   7.580        165.00	    14.071
   7.600        160.00	    13.856
   7.620        174.17	    14.457
   7.640        149.17	    13.379
   7.660        180.00	    14.697
   7.680        160.00	    13.856
   7.700        174.17	    14.457
   7.720        171.67	    14.353
   7.740        158.33	    13.784
   7.760        154.17	    13.601
   7.780        175.00	    14.491
   7.800        132.50	    12.610
   7.820        161.67	    13.928
   7.840        162.50	    13.964
   7.860        147.50	    13.304
   7.880        138.33	    12.884
   7.900        145.00	    13.191
   7.920        156.67	    13.711
   7.940        165.00	    14.071
   7.960        155.83	    13.675
   7.980        178.33	    14.629
   8.000        144.17	    13.153
   8.020        154.17	    13.601
   8.040        138.33	    12.884
   8.060        169.17	    14.248
   8.080        155.00	    13.638
   8.100        155.83	    13.675
   8.120        143.33	    13.115
   8.140        164.17	    14.036
   8.160        165.83	    14.107
   8.180        164.17	    14.036
   8.200        149.17	    13.379
   8.220        149.17	    13.379
   8.240        161.67	    13.928
   8.260        163.33	    14.000
   8.280        146.67	    13.266
   8.300        156.67	    13.711
   8.320        170.83	    14.318
   8.340        179.17	    14.663
   8.360        170.83	    14.318
   8.380        157.50	    13.748
   8.400        183.33	    14.832
   8.420        194.17	    15.264
   8.440        169.17	    14.248
   8.460        164.17	    14.036
   8.480        175.83	    14.526
   8.500        174.17	    14.457
   8.520        210.00	    15.875
   8.540        190.00	    15.100
   8.560        210.00	    15.875
   8.580        230.00	    16.613
   8.600        252.50	    17.407
   8.620        240.83	    17.000
   8.640        280.00	    18.330
   8.660        280.00	    18.330
   8.680        344.17	    20.322
   8.700        360.00	    20.785
   8.720        450.83	    23.259
   8.740        560.00	    25.923
   8.760        694.17	    28.862
   8.780        931.67	    33.437
   8.800        865.83	    32.234
   8.820        684.17	    28.653
   8.840        387.50	    21.564
   8.860        244.17	    17.117
   8.880        190.00	    15.100
   8.900        210.83	    15.906
   8.920        165.83	    14.107
   8.940        191.67	    15.166
   8.960        173.33	    14.422
   8.980        146.67	    13.266
   9.000        154.17	    13.601
   9.020        150.00	    13.416
   9.040        148.33	    13.342
   9.060        159.17	    13.820
   9.080        154.17	    13.601
   9.100        166.67	    14.142
   9.120        147.50	    13.304
   9.140        128.33	    12.410
   9.160        135.00	    12.728
   9.180        149.17	    13.379
   9.200        110.83	    11.533
   9.220        131.67	    12.570
   9.240        145.00	    13.191
   9.260        135.00	    12.728
   9.280        145.83	    13.229
   9.300        119.17	    11.958
   9.320        140.00	    12.961
   9.340        140.00	    12.961
   9.360        154.17	    13.601
   9.380        135.83	    12.767
   9.400        137.50	    12.845
   9.420        121.67	    12.083
   9.440        109.17	    11.446
   9.460        125.83	    12.288
   9.480        119.17	    11.958
   9.500        133.33	    12.649
   9.520        138.33	    12.884
   9.540        132.50	    12.610
   9.560        122.50	    12.124
   9.580        127.50	    12.369
   9.600        125.00	    12.247
   9.620        107.50	    11.358
   9.640        107.50	    11.358
   9.660        116.67	    11.832
   9.680        117.50	    11.874
   9.700        125.00	    12.247
   9.720        123.33	    12.166
   9.740        103.33	    11.136
   9.760        116.67	    11.832
   9.780         98.33	    10.863
   9.800        115.00	    11.747
   9.820        115.83	    11.790
   9.840        103.33	    11.136
   9.860         85.83	    10.149
   9.880        128.33	    12.410
   9.900        104.17	    11.180
   9.920        102.50	    11.091
   9.940        117.50	    11.874
   9.960        114.17	    11.705
   9.980         86.67	    10.198
  10.000        112.50	    11.619
  10.020        108.33	    11.402
  10.040        128.33	    12.410
  10.060        123.33	    12.166
  10.080        116.67	    11.832
  10.100        115.00	    11.747
  10.120        120.00	    12.000
  10.140        108.33	    11.402
  10.160        108.33	    11.402
  10.180        110.00	    11.489
  10.200        120.00	    12.000
  10.220        109.17	    11.446
  10.240        111.67	    11.576
  10.260        111.67	    11.576
  10.280         94.17	    10.630
  10.300         97.50	    10.817
  10.320        113.33	    11.662
  10.340        116.67	    11.832
  10.360        124.17	    12.207
  10.380        123.33	    12.166
  10.400        137.50	    12.845
  10.420        124.17	    12.207
  10.440        135.83	    12.767
  10.460        150.00	    13.416
  10.480        122.50	    12.124
  10.500        120.00	    12.000
  10.520         86.67	    10.198
  10.540        104.17	    11.180
  10.560         96.67	    10.770
  10.580         91.67	    10.488
  10.600        103.33	    11.136
  10.620        105.00	    11.225
  10.640         97.50	    10.817
  10.660        100.83	    11.000
  10.680         99.17	    10.909
  10.700         80.83	     9.849
  10.720         90.00	    10.392
  10.740         94.17	    10.630
  10.760        105.00	    11.225
  10.780         98.33	    10.863
  10.800        122.50	    12.124
  10.820        110.00	    11.489
  10.840        105.00	    11.225
  10.860        106.67	    11.314
  10.880        111.67	    11.576
  10.900        115.00	    11.747
  10.920        106.67	    11.314
  10.940        106.67	    11.314
  10.960        108.33	    11.402
  10.980         97.50	    10.817
  11.000        101.67	    11.045
  11.020        111.67	    11.576
  11.040         98.33	    10.863
  11.060         94.17	    10.630
  11.080        107.50	    11.358
  11.100         97.50	    10.817
  11.120         99.17	    10.909
  11.140         84.17	    10.050
  11.160         98.33	    10.863
  11.180         91.67	    10.488
  11.200        101.67	    11.045
  11.220        103.33	    11.136
  11.240        115.00	    11.747
  11.260         90.00	    10.392
  11.280         91.67	    10.488
  11.300        104.17	    11.180
  11.320         95.83	    10.724
  11.340         97.50	    10.817
  11.360         99.17	    10.909
  11.380         93.33	    10.583
  11.400         80.83	     9.849
  11.420        101.67	    11.045
  11.440         95.83	    10.724
  11.460        101.67	    11.045
  11.480        100.83	    11.000
  11.500         85.00	    10.100
  11.520         95.83	    10.724
  11.540         83.33	    10.000
  11.560         97.50	    10.817
  11.580         93.33	    10.583
  11.600         98.33	    10.863
  11.620         90.00	    10.392
  11.640         76.67	     9.592
  11.660        104.17	    11.180
  11.680         95.00	    10.677
  11.700         83.33	    10.000
  11.720         96.67	    10.770
  11.740         94.17	    10.630
  11.760         96.67	    10.770
  11.780         93.33	    10.583
  11.800         94.17	    10.630
  11.820        107.50	    11.358
  11.840         93.33	    10.583
  11.860        105.83	    11.269
  11.880        109.17	    11.446
  11.900        112.50	    11.619
  11.920         96.67	    10.770
  11.940        107.50	    11.358
  11.960        118.33	    11.916
  11.980        117.50	    11.874
  12.000        144.17	    13.153
  12.020        152.50	    13.528
  12.040        150.83	    13.454
  12.060        255.83	    17.521
  12.080        365.83	    20.952
  12.100        399.17	    21.886
  12.120        342.50	    20.273
  12.140        250.83	    17.349
  12.160        174.17	    14.457
  12.180        174.17	    14.457
  12.200        139.17	    12.923
  12.220        170.83	    14.318
  12.240        175.83	    14.526
  12.260        183.33	    14.832
  12.280        183.33	    14.832
  12.300        190.00	    15.100
  12.320        170.00	    14.283
  12.340        243.33	    17.088
  12.360        270.00	    18.000
  12.380        305.83	    19.157
  12.400        388.33	    21.587
  12.420        398.33	    21.863
  12.440        335.00	    20.050
  12.460        245.83	    17.176
  12.480        158.33	    13.784
  12.500        124.17	    12.207
  12.520        103.33	    11.136
  12.540        112.50	    11.619
  12.560        101.67	    11.045
  12.580        103.33	    11.136
  12.600        108.33	    11.402
  12.620        105.83	    11.269
  12.640         87.50	    10.247
  12.660         87.50	    10.247
  12.680         92.50	    10.536
  12.700         86.67	    10.198
  12.720         83.33	    10.000
  12.740         70.00	     9.165
  12.760         81.67	     9.899
  12.780        100.83	    11.000
  12.800         85.00	    10.100
  12.820        104.17	    11.180
  12.840         81.67	     9.899
  12.860         81.67	     9.899
  12.880         69.17	     9.110
  12.900         88.33	    10.296
  12.920         80.83	     9.849
  12.940         84.17	    10.050
  12.960         95.00	    10.677
  12.980         79.17	     9.747
  13.000         80.83	     9.849
  13.020         95.00	    10.677
  13.040         84.17	    10.050
  13.060         72.50	     9.327
  13.080         75.00	     9.487
  13.100         85.00	    10.100
  13.120         72.50	     9.327
  13.140         71.67	     9.274
  13.160         90.00	    10.392
  13.180         80.00	     9.798
  13.200         72.50	     9.327
  13.220         91.67	    10.488
  13.240         78.33	     9.695
  13.260         71.67	     9.274
  13.280         87.50	    10.247
  13.300         70.00	     9.165
  13.320         91.67	    10.488
  13.340         81.67	     9.899
  13.360         87.50	    10.247
  13.380         83.33	    10.000
  13.400         85.83	    10.149
  13.420         69.17	     9.110
  13.440         78.33	     9.695
  13.460         75.83	     9.539
  13.480         71.67	     9.274
  13.500         91.67	    10.488
  13.520         83.33	    10.000
  13.540         90.00	    10.392
  13.560         88.33	    10.296
  13.580         88.33	    10.296
  13.600         95.00	    10.677
  13.620         87.50	    10.247
  13.640         76.67	     9.592
  13.660         86.67	    10.198
  13.680         83.33	    10.000
  13.700         86.67	    10.198
  13.720         86.67	    10.198
  13.740         89.17	    10.344
  13.760        118.33	    11.916
  13.780        115.83	    11.790
  13.800         95.00	    10.677
  13.820         89.17	    10.344
  13.840         81.67	     9.899
  13.860         79.17	     9.747
  13.880         69.17	     9.110
  13.900         72.50	     9.327
  13.920         86.67	    10.198
  13.940         85.83	    10.149
  13.960         73.33	     9.381
  13.980         74.17	     9.434
  14.000         69.17	     9.110
  14.020         75.00	     9.487
  14.040         66.67	     8.944
  14.060         56.67	     8.246
  14.080         63.33	     8.718
  14.100         69.17	     9.110
  14.120         65.00	     8.832
  14.140         64.17	     8.775
  14.160         71.67	     9.274
  14.180         82.50	     9.950
  14.200         60.83	     8.544
  14.220         64.17	     8.775
  14.240         70.83	     9.220
  14.260         70.00	     9.165
  14.280         75.83	     9.539
  14.300         75.83	     9.539
  14.320         63.33	     8.718
  14.340         69.17	     9.110
  14.360         62.50	     8.660
  14.380         60.83	     8.544
  14.400         69.17	     9.110
