
Filename:
	C:\Program Files\Thermo Electron\WinXRD\Datafiles\F_HERMAN\FIEN\G14A_FT.raw

File Created:
	October 02, 2019 - 04:00 PM

Specimen Id:
	G14 A FT

Specimen Name:
	

Specimen Description:
	

Comment:
Scan Type: 2Theta Scan
Start Angle: 1 deg.
Stop Angle: 65 deg.
Num Points: 3201
Step Size: 0.02 deg.
Scan Rate: 1.000000
Scan Mode: Continuous
Wavelength: 1.540562
\Kalpha1: 1.540562	\Kalpha2: 1.544390	\Kbeta: 1.392218

Optics:
		Detector:
			 Type: Fixed Slits
		Tube: 
			 Type: Fixed Slits


Datas:
 Pos [deg]       Rate [CPS]      ESD [-]

Range 1 ---> Iteration 1
   1.000          0.00	     0.000
   1.020          0.00	     0.000
   1.040          0.00	     0.000
   1.060          0.00	     0.000
   1.080          0.00	     0.000
   1.100          0.00	     0.000
   1.120        200.83	    15.524
   1.140        683.33	    28.636
   1.160        431.67	    22.760
   1.180        185.00	    14.900
   1.200        290.00	    18.655
   1.220        241.67	    17.029
   1.240        345.83	    20.372
   1.260        309.17	    19.261
   1.280        317.50	    19.519
   1.300        332.50	    19.975
   1.320        275.00	    18.166
   1.340        304.17	    19.105
   1.360        317.50	    19.519
   1.380        338.33	    20.149
   1.400        454.17	    23.345
   1.420        683.33	    28.636
   1.440        853.33	    32.000
   1.460       1225.00	    38.341
   1.480       1800.00	    46.476
   1.500       2266.67	    52.154
   1.520       2597.50	    55.830
   1.540       2580.00	    55.642
   1.560       2643.33	    56.321
   1.580       2543.33	    55.245
   1.600       2574.17	    55.579
   1.620       2400.83	    53.675
   1.640       2330.00	    52.877
   1.660       2293.33	    52.460
   1.680       2350.83	    53.113
   1.700       2310.83	    52.659
   1.720       2240.83	    51.856
   1.740       2245.83	    51.913
   1.760       2208.33	    51.478
   1.780       1986.67	    48.826
   1.800       2005.00	    49.051
   1.820       1808.33	    46.583
   1.840       1726.67	    45.519
   1.860       1495.83	    42.367
   1.880       1338.33	    40.075
   1.900       1216.67	    38.210
   1.920       1037.50	    35.285
   1.940        935.00	    33.496
   1.960        838.33	    31.718
   1.980        775.83	    30.512
   2.000        735.83	    29.715
   2.020        725.83	    29.513
   2.040        728.33	    29.563
   2.060        715.83	    29.309
   2.080        702.50	    29.034
   2.100        706.67	    29.120
   2.120        674.17	    28.443
   2.140        646.67	    27.857
   2.160        682.50	    28.618
   2.180        680.83	    28.583
   2.200        626.67	    27.423
   2.220        598.33	    26.796
   2.240        610.00	    27.055
   2.260        612.50	    27.111
   2.280        597.50	    26.777
   2.300        604.17	    26.926
   2.320        613.33	    27.129
   2.340        599.17	    26.814
   2.360        553.33	    25.768
   2.380        589.17	    26.589
   2.400        573.33	    26.230
   2.420        566.67	    26.077
   2.440        539.17	    25.436
   2.460        525.00	    25.100
   2.480        568.33	    26.115
   2.500        530.83	    25.239
   2.520        512.50	    24.799
   2.540        465.00	    23.622
   2.560        537.50	    25.397
   2.580        491.67	    24.290
   2.600        514.17	    24.839
   2.620        468.33	    23.707
   2.640        485.00	    24.125
   2.660        500.83	    24.515
   2.680        474.17	    23.854
   2.700        459.17	    23.473
   2.720        484.17	    24.104
   2.740        447.50	    23.173
   2.760        435.83	    22.869
   2.780        445.00	    23.108
   2.800        484.17	    24.104
   2.820        464.17	    23.601
   2.840        445.83	    23.130
   2.860        454.17	    23.345
   2.880        399.17	    21.886
   2.900        387.50	    21.564
   2.920        429.17	    22.694
   2.940        434.17	    22.825
   2.960        416.67	    22.361
   2.980        425.83	    22.605
   3.000        396.67	    21.817
   3.020        401.67	    21.954
   3.040        369.17	    21.048
   3.060        402.50	    21.977
   3.080        400.83	    21.932
   3.100        367.50	    21.000
   3.120        371.67	    21.119
   3.140        348.33	    20.445
   3.160        380.83	    21.378
   3.180        395.00	    21.772
   3.200        350.83	    20.518
   3.220        375.00	    21.213
   3.240        395.00	    21.772
   3.260        359.17	    20.761
   3.280        348.33	    20.445
   3.300        335.83	    20.075
   3.320        374.17	    21.190
   3.340        358.33	    20.736
   3.360        350.83	    20.518
   3.380        346.67	    20.396
   3.400        363.33	    20.881
   3.420        318.33	    19.545
   3.440        341.67	    20.248
   3.460        375.83	    21.237
   3.480        337.50	    20.125
   3.500        382.50	    21.424
   3.520        308.33	    19.235
   3.540        340.00	    20.199
   3.560        349.17	    20.469
   3.580        300.00	    18.974
   3.600        354.17	    20.616
   3.620        372.50	    21.142
   3.640        343.33	    20.298
   3.660        331.67	    19.950
   3.680        300.83	    19.000
   3.700        305.83	    19.157
   3.720        320.83	    19.621
   3.740        306.67	    19.183
   3.760        278.33	    18.276
   3.780        319.17	    19.570
   3.800        304.17	    19.105
   3.820        327.50	    19.824
   3.840        305.00	    19.131
   3.860        292.50	    18.735
   3.880        320.00	    19.596
   3.900        334.17	    20.025
   3.920        333.33	    20.000
   3.940        290.83	    18.682
   3.960        273.33	    18.111
   3.980        297.50	    18.894
   4.000        278.33	    18.276
   4.020        283.33	    18.439
   4.040        288.33	    18.601
   4.060        271.67	    18.055
   4.080        285.83	    18.520
   4.100        273.33	    18.111
   4.120        283.33	    18.439
   4.140        256.67	    17.550
   4.160        284.17	    18.466
   4.180        269.17	    17.972
   4.200        299.17	    18.947
   4.220        290.00	    18.655
   4.240        258.33	    17.607
   4.260        268.33	    17.944
   4.280        275.83	    18.193
   4.300        293.33	    18.762
   4.320        241.67	    17.029
   4.340        256.67	    17.550
   4.360        235.00	    16.793
   4.380        264.17	    17.804
   4.400        230.00	    16.613
   4.420        245.83	    17.176
   4.440        245.00	    17.146
   4.460        257.50	    17.578
   4.480        265.00	    17.833
   4.500        250.00	    17.321
   4.520        238.33	    16.912
   4.540        254.17	    17.464
   4.560        232.50	    16.703
   4.580        260.00	    17.664
   4.600        219.17	    16.217
   4.620        226.67	    16.492
   4.640        255.83	    17.521
   4.660        274.17	    18.138
   4.680        239.17	    16.941
   4.700        250.83	    17.349
   4.720        225.83	    16.462
   4.740        267.50	    17.916
   4.760        235.00	    16.793
   4.780        222.50	    16.340
   4.800        257.50	    17.578
   4.820        219.17	    16.217
   4.840        231.67	    16.673
   4.860        219.17	    16.217
   4.880        230.00	    16.613
   4.900        221.67	    16.310
   4.920        190.00	    15.100
   4.940        210.00	    15.875
   4.960        205.00	    15.684
   4.980        237.50	    16.882
   5.000        223.33	    16.371
   5.020        241.67	    17.029
   5.040        191.67	    15.166
   5.060        200.00	    15.492
   5.080        205.83	    15.716
   5.100        221.67	    16.310
   5.120        220.00	    16.248
   5.140        210.83	    15.906
   5.160        231.67	    16.673
   5.180        210.83	    15.906
   5.200        195.83	    15.330
   5.220        202.50	    15.588
   5.240        182.50	    14.799
   5.260        227.50	    16.523
   5.280        190.83	    15.133
   5.300        228.33	    16.553
   5.320        209.17	    15.843
   5.340        211.67	    15.937
   5.360        235.00	    16.793
   5.380        202.50	    15.588
   5.400        190.83	    15.133
   5.420        200.00	    15.492
   5.440        197.50	    15.395
   5.460        209.17	    15.843
   5.480        197.50	    15.395
   5.500        178.33	    14.629
   5.520        183.33	    14.832
   5.540        202.50	    15.588
   5.560        182.50	    14.799
   5.580        200.83	    15.524
   5.600        235.83	    16.823
   5.620        195.83	    15.330
   5.640        184.17	    14.866
   5.660        185.00	    14.900
   5.680        220.00	    16.248
   5.700        192.50	    15.199
   5.720        175.00	    14.491
   5.740        188.33	    15.033
   5.760        205.00	    15.684
   5.780        190.83	    15.133
   5.800        191.67	    15.166
   5.820        195.83	    15.330
   5.840        173.33	    14.422
   5.860        210.00	    15.875
   5.880        225.83	    16.462
   5.900        197.50	    15.395
   5.920        205.83	    15.716
   5.940        208.33	    15.811
   5.960        217.50	    16.155
   5.980        221.67	    16.310
   6.000        170.83	    14.318
   6.020        224.17	    16.401
   6.040        248.33	    17.263
   6.060        235.00	    16.793
   6.080        239.17	    16.941
   6.100        257.50	    17.578
   6.120        228.33	    16.553
   6.140        258.33	    17.607
   6.160        268.33	    17.944
   6.180        264.17	    17.804
   6.200        293.33	    18.762
   6.220        297.50	    18.894
   6.240        315.00	    19.442
   6.260        295.83	    18.841
   6.280        260.83	    17.692
   6.300        283.33	    18.439
   6.320        327.50	    19.824
   6.340        304.17	    19.105
   6.360        327.50	    19.824
   6.380        322.50	    19.672
   6.400        342.50	    20.273
   6.420        368.33	    21.024
   6.440        320.83	    19.621
   6.460        287.50	    18.574
   6.480        263.33	    17.776
   6.500        227.50	    16.523
   6.520        230.83	    16.643
   6.540        182.50	    14.799
   6.560        184.17	    14.866
   6.580        200.00	    15.492
   6.600        211.67	    15.937
   6.620        205.83	    15.716
   6.640        196.67	    15.362
   6.660        189.17	    15.067
   6.680        186.67	    14.967
   6.700        200.83	    15.524
   6.720        180.83	    14.731
   6.740        191.67	    15.166
   6.760        160.00	    13.856
   6.780        176.67	    14.560
   6.800        184.17	    14.866
   6.820        205.00	    15.684
   6.840        205.00	    15.684
   6.860        200.83	    15.524
   6.880        186.67	    14.967
   6.900        177.50	    14.595
   6.920        184.17	    14.866
   6.940        169.17	    14.248
   6.960        204.17	    15.652
   6.980        181.67	    14.765
   7.000        185.83	    14.933
   7.020        185.00	    14.900
   7.040        172.50	    14.387
   7.060        173.33	    14.422
   7.080        189.17	    15.067
   7.100        175.83	    14.526
   7.120        201.67	    15.556
   7.140        196.67	    15.362
   7.160        193.33	    15.232
   7.180        179.17	    14.663
   7.200        178.33	    14.629
   7.220        179.17	    14.663
   7.240        171.67	    14.353
   7.260        171.67	    14.353
   7.280        166.67	    14.142
   7.300        165.83	    14.107
   7.320        165.83	    14.107
   7.340        172.50	    14.387
   7.360        165.83	    14.107
   7.380        175.83	    14.526
   7.400        163.33	    14.000
   7.420        151.67	    13.491
   7.440        164.17	    14.036
   7.460        141.67	    13.038
   7.480        154.17	    13.601
   7.500        160.83	    13.892
   7.520        175.00	    14.491
   7.540        150.00	    13.416
   7.560        172.50	    14.387
   7.580        160.83	    13.892
   7.600        178.33	    14.629
   7.620        158.33	    13.784
   7.640        165.00	    14.071
   7.660        135.00	    12.728
   7.680        165.00	    14.071
   7.700        160.83	    13.892
   7.720        144.17	    13.153
   7.740        160.00	    13.856
   7.760        161.67	    13.928
   7.780        139.17	    12.923
   7.800        154.17	    13.601
   7.820        150.00	    13.416
   7.840        155.00	    13.638
   7.860        170.00	    14.283
   7.880        172.50	    14.387
   7.900        154.17	    13.601
   7.920        150.83	    13.454
   7.940        163.33	    14.000
   7.960        174.17	    14.457
   7.980        148.33	    13.342
   8.000        157.50	    13.748
   8.020        187.50	    15.000
   8.040        155.00	    13.638
   8.060        136.67	    12.806
   8.080        147.50	    13.304
   8.100        157.50	    13.748
   8.120        165.83	    14.107
   8.140        160.83	    13.892
   8.160        157.50	    13.748
   8.180        152.50	    13.528
   8.200        159.17	    13.820
   8.220        158.33	    13.784
   8.240        158.33	    13.784
   8.260        172.50	    14.387
   8.280        164.17	    14.036
   8.300        169.17	    14.248
   8.320        171.67	    14.353
   8.340        168.33	    14.213
   8.360        175.83	    14.526
   8.380        180.83	    14.731
   8.400        164.17	    14.036
   8.420        171.67	    14.353
   8.440        150.00	    13.416
   8.460        181.67	    14.765
   8.480        176.67	    14.560
   8.500        180.00	    14.697
   8.520        189.17	    15.067
   8.540        215.83	    16.093
   8.560        171.67	    14.353
   8.580        195.83	    15.330
   8.600        204.17	    15.652
   8.620        235.00	    16.793
   8.640        215.00	    16.062
   8.660        247.50	    17.234
   8.680        223.33	    16.371
   8.700        245.00	    17.146
   8.720        284.17	    18.466
   8.740        281.67	    18.385
   8.760        280.83	    18.358
   8.780        310.00	    19.287
   8.800        349.17	    20.469
   8.820        401.67	    21.954
   8.840        389.17	    21.610
   8.860        365.83	    20.952
   8.880        426.67	    22.627
   8.900        495.00	    24.372
   8.920        510.83	    24.759
   8.940        565.83	    26.058
   8.960        611.67	    27.092
   8.980        689.17	    28.758
   9.000        850.83	    31.953
   9.020        923.33	    33.287
   9.040        941.67	    33.615
   9.060        914.17	    33.121
   9.080        860.83	    32.140
   9.100        718.33	    29.360
   9.120        516.67	    24.900
   9.140        430.00	    22.716
   9.160        289.17	    18.628
   9.180        225.83	    16.462
   9.200        268.33	    17.944
   9.220        239.17	    16.941
   9.240        188.33	    15.033
   9.260        179.17	    14.663
   9.280        205.83	    15.716
   9.300        205.83	    15.716
   9.320        190.83	    15.133
   9.340        197.50	    15.395
   9.360        171.67	    14.353
   9.380        164.17	    14.036
   9.400        158.33	    13.784
   9.420        166.67	    14.142
   9.440        156.67	    13.711
   9.460        151.67	    13.491
   9.480        156.67	    13.711
   9.500        156.67	    13.711
   9.520        150.83	    13.454
   9.540        171.67	    14.353
   9.560        189.17	    15.067
   9.580        185.00	    14.900
   9.600        190.83	    15.133
   9.620        221.67	    16.310
   9.640        179.17	    14.663
   9.660        202.50	    15.588
   9.680        179.17	    14.663
   9.700        155.00	    13.638
   9.720        150.83	    13.454
   9.740        113.33	    11.662
   9.760        120.00	    12.000
   9.780        134.17	    12.689
   9.800        110.83	    11.533
   9.820        120.00	    12.000
   9.840        118.33	    11.916
   9.860        101.67	    11.045
   9.880        105.00	    11.225
   9.900        105.00	    11.225
   9.920        112.50	    11.619
   9.940         95.00	    10.677
   9.960        108.33	    11.402
   9.980        113.33	    11.662
  10.000        111.67	    11.576
  10.020         95.83	    10.724
  10.040        115.83	    11.790
  10.060         97.50	    10.817
  10.080        117.50	    11.874
  10.100        103.33	    11.136
  10.120        105.83	    11.269
  10.140         90.00	    10.392
  10.160        109.17	    11.446
  10.180         96.67	    10.770
  10.200        107.50	    11.358
  10.220        105.83	    11.269
  10.240         95.83	    10.724
  10.260         99.17	    10.909
  10.280         85.83	    10.149
  10.300        103.33	    11.136
  10.320        100.00	    10.954
  10.340        108.33	    11.402
  10.360         95.83	    10.724
  10.380         92.50	    10.536
  10.400        102.50	    11.091
  10.420        102.50	    11.091
  10.440         93.33	    10.583
  10.460        104.17	    11.180
  10.480         74.17	     9.434
  10.500         85.83	    10.149
  10.520        105.83	    11.269
  10.540        109.17	    11.446
  10.560        124.17	    12.207
  10.580        106.67	    11.314
  10.600        136.67	    12.806
  10.620        133.33	    12.649
  10.640        138.33	    12.884
  10.660        181.67	    14.765
  10.680        196.67	    15.362
  10.700        199.17	    15.460
  10.720        170.00	    14.283
  10.740        150.83	    13.454
  10.760        134.17	    12.689
  10.780        134.17	    12.689
  10.800        125.00	    12.247
  10.820        105.83	    11.269
  10.840         95.83	    10.724
  10.860         98.33	    10.863
  10.880        105.83	    11.269
  10.900        104.17	    11.180
  10.920         74.17	     9.434
  10.940        111.67	    11.576
  10.960        103.33	    11.136
  10.980         59.17	     8.426
  11.000        101.67	    11.045
  11.020         96.67	    10.770
  11.040         86.67	    10.198
  11.060         89.17	    10.344
  11.080         86.67	    10.198
  11.100         78.33	     9.695
  11.120         87.50	    10.247
  11.140         88.33	    10.296
  11.160         98.33	    10.863
  11.180         80.00	     9.798
  11.200         78.33	     9.695
  11.220         85.00	    10.100
  11.240         98.33	    10.863
  11.260         83.33	    10.000
  11.280         81.67	     9.899
  11.300         92.50	    10.536
  11.320         97.50	    10.817
  11.340         90.83	    10.440
  11.360         86.67	    10.198
  11.380         90.00	    10.392
  11.400         94.17	    10.630
  11.420         92.50	    10.536
  11.440         88.33	    10.296
  11.460         84.17	    10.050
  11.480         86.67	    10.198
  11.500         80.83	     9.849
  11.520         96.67	    10.770
  11.540         77.50	     9.644
  11.560         92.50	    10.536
  11.580         94.17	    10.630
  11.600         80.83	     9.849
  11.620         87.50	    10.247
  11.640         83.33	    10.000
  11.660         82.50	     9.950
  11.680         79.17	     9.747
  11.700        103.33	    11.136
  11.720        101.67	    11.045
  11.740         80.83	     9.849
  11.760        100.00	    10.954
  11.780         77.50	     9.644
  11.800         88.33	    10.296
  11.820         92.50	    10.536
  11.840         90.00	    10.392
  11.860        118.33	    11.916
  11.880        100.00	    10.954
  11.900        119.17	    11.958
  11.920         87.50	    10.247
  11.940         90.83	    10.440
  11.960        101.67	    11.045
  11.980         88.33	    10.296
  12.000         90.83	    10.440
  12.020        101.67	    11.045
  12.040        108.33	    11.402
  12.060        117.50	    11.874
  12.080        118.33	    11.916
  12.100        115.83	    11.790
  12.120        145.83	    13.229
  12.140        130.83	    12.530
  12.160        148.33	    13.342
  12.180        161.67	    13.928
  12.200        201.67	    15.556
  12.220        206.67	    15.748
  12.240        270.83	    18.028
  12.260        357.50	    20.712
  12.280        418.33	    22.405
  12.300        615.83	    27.185
  12.320        781.67	    30.627
  12.340       1011.67	    34.843
  12.360       1114.17	    36.565
  12.380       1120.00	    36.661
  12.400        955.00	    33.853
