
Filename:
	C:\Program Files\Thermo Electron\WinXRD\Datafiles\F_HERMAN\FIEN\G15_RT.raw

File Created:
	January 30, 2020 - 09:25 AM

Specimen Id:
	G15 RT

Specimen Name:
	

Specimen Description:
	

Comment:
Scan Type: 2Theta Scan
Start Angle: 3 deg.
Stop Angle: 65 deg.
Num Points: 3101
Step Size: 0.02 deg.
Scan Rate: 1.000000
Scan Mode: Continuous
Wavelength: 1.540562
\Kalpha1: 1.540562	\Kalpha2: 1.544390	\Kbeta: 1.392218

Optics:
		Detector:
			 Type: Fixed Slits
		Tube: 
			 Type: Fixed Slits


Datas:
 Pos [deg]       Rate [CPS]      ESD [-]

Range 1 ---> Iteration 1
   3.000        428.33	    22.672
   3.020        417.50	    22.383
   3.040        440.83	    23.000
   3.060        425.83	    22.605
   3.080        460.83	    23.516
   3.100        440.83	    23.000
   3.120        405.83	    22.068
   3.140        435.83	    22.869
   3.160        410.00	    22.181
   3.180        440.00	    22.978
   3.200        415.00	    22.316
   3.220        385.00	    21.494
   3.240        390.83	    21.656
   3.260        382.50	    21.424
   3.280        377.50	    21.284
   3.300        418.33	    22.405
   3.320        372.50	    21.142
   3.340        370.83	    21.095
   3.360        401.67	    21.954
   3.380        352.50	    20.567
   3.400        401.67	    21.954
   3.420        405.83	    22.068
   3.440        385.00	    21.494
   3.460        375.00	    21.213
   3.480        395.83	    21.794
   3.500        364.17	    20.905
   3.520        390.83	    21.656
   3.540        359.17	    20.761
   3.560        380.83	    21.378
   3.580        333.33	    20.000
   3.600        367.50	    21.000
   3.620        370.00	    21.071
   3.640        340.83	    20.224
   3.660        360.00	    20.785
   3.680        354.17	    20.616
   3.700        339.17	    20.174
   3.720        355.83	    20.664
   3.740        355.83	    20.664
   3.760        363.33	    20.881
   3.780        320.00	    19.596
   3.800        340.00	    20.199
   3.820        344.17	    20.322
   3.840        334.17	    20.025
   3.860        305.83	    19.157
   3.880        328.33	    19.849
   3.900        328.33	    19.849
   3.920        307.50	    19.209
   3.940        305.83	    19.157
   3.960        292.50	    18.735
   3.980        303.33	    19.079
   4.000        295.00	    18.815
   4.020        313.33	    19.391
   4.040        289.17	    18.628
   4.060        300.83	    19.000
   4.080        315.00	    19.442
   4.100        317.50	    19.519
   4.120        335.00	    20.050
   4.140        277.50	    18.248
   4.160        311.67	    19.339
   4.180        274.17	    18.138
   4.200        323.33	    19.698
   4.220        282.50	    18.412
   4.240        310.00	    19.287
   4.260        283.33	    18.439
   4.280        281.67	    18.385
   4.300        273.33	    18.111
   4.320        290.83	    18.682
   4.340        271.67	    18.055
   4.360        280.00	    18.330
   4.380        260.00	    17.664
   4.400        267.50	    17.916
   4.420        293.33	    18.762
   4.440        314.17	    19.416
   4.460        277.50	    18.248
   4.480        260.83	    17.692
   4.500        281.67	    18.385
   4.520        250.00	    17.321
   4.540        260.83	    17.692
   4.560        265.00	    17.833
   4.580        251.67	    17.378
   4.600        249.17	    17.292
   4.620        296.67	    18.868
   4.640        274.17	    18.138
   4.660        255.83	    17.521
   4.680        263.33	    17.776
   4.700        270.83	    18.028
   4.720        282.50	    18.412
   4.740        263.33	    17.776
   4.760        255.83	    17.521
   4.780        264.17	    17.804
   4.800        265.00	    17.833
   4.820        260.83	    17.692
   4.840        255.83	    17.521
   4.860        263.33	    17.776
   4.880        244.17	    17.117
   4.900        237.50	    16.882
   4.920        259.17	    17.635
   4.940        258.33	    17.607
   4.960        237.50	    16.882
   4.980        233.33	    16.733
   5.000        259.17	    17.635
   5.020        250.83	    17.349
   5.040        241.67	    17.029
   5.060        234.17	    16.763
   5.080        225.00	    16.432
   5.100        221.67	    16.310
   5.120        225.00	    16.432
   5.140        252.50	    17.407
   5.160        227.50	    16.523
   5.180        260.83	    17.692
   5.200        241.67	    17.029
   5.220        216.67	    16.125
   5.240        230.83	    16.643
   5.260        190.83	    15.133
   5.280        215.00	    16.062
   5.300        225.00	    16.432
   5.320        220.00	    16.248
   5.340        218.33	    16.186
   5.360        225.83	    16.462
   5.380        215.83	    16.093
   5.400        223.33	    16.371
   5.420        246.67	    17.205
   5.440        220.00	    16.248
   5.460        229.17	    16.583
   5.480        224.17	    16.401
   5.500        218.33	    16.186
   5.520        207.50	    15.780
   5.540        216.67	    16.125
   5.560        214.17	    16.031
   5.580        214.17	    16.031
   5.600        231.67	    16.673
   5.620        240.00	    16.971
   5.640        221.67	    16.310
   5.660        254.17	    17.464
   5.680        230.83	    16.643
   5.700        253.33	    17.436
   5.720        271.67	    18.055
   5.740        253.33	    17.436
   5.760        256.67	    17.550
   5.780        295.00	    18.815
   5.800        261.67	    17.720
   5.820        293.33	    18.762
   5.840        310.83	    19.313
   5.860        398.33	    21.863
   5.880        533.33	    25.298
   5.900        581.67	    26.420
   5.920        490.83	    24.269
   5.940        396.67	    21.817
   5.960        385.83	    21.517
   5.980        395.00	    21.772
   6.000        361.67	    20.833
   6.020        345.00	    20.347
   6.040        352.50	    20.567
   6.060        305.00	    19.131
   6.080        310.83	    19.313
   6.100        309.17	    19.261
   6.120        350.00	    20.494
   6.140        311.67	    19.339
   6.160        296.67	    18.868
   6.180        263.33	    17.776
   6.200        200.00	    15.492
   6.220        242.50	    17.059
   6.240        207.50	    15.780
   6.260        220.00	    16.248
   6.280        209.17	    15.843
   6.300        197.50	    15.395
   6.320        217.50	    16.155
   6.340        204.17	    15.652
   6.360        187.50	    15.000
   6.380        191.67	    15.166
   6.400        224.17	    16.401
   6.420        214.17	    16.031
   6.440        184.17	    14.866
   6.460        212.50	    15.969
   6.480        183.33	    14.832
   6.500        195.00	    15.297
   6.520        177.50	    14.595
   6.540        200.00	    15.492
   6.560        191.67	    15.166
   6.580        196.67	    15.362
   6.600        190.83	    15.133
   6.620        184.17	    14.866
   6.640        183.33	    14.832
   6.660        196.67	    15.362
   6.680        215.83	    16.093
   6.700        181.67	    14.765
   6.720        218.33	    16.186
   6.740        156.67	    13.711
   6.760        183.33	    14.832
   6.780        166.67	    14.142
   6.800        189.17	    15.067
   6.820        176.67	    14.560
   6.840        200.83	    15.524
   6.860        170.00	    14.283
   6.880        165.83	    14.107
   6.900        172.50	    14.387
   6.920        177.50	    14.595
   6.940        170.83	    14.318
   6.960        164.17	    14.036
   6.980        161.67	    13.928
   7.000        188.33	    15.033
   7.020        165.00	    14.071
   7.040        194.17	    15.264
   7.060        174.17	    14.457
   7.080        186.67	    14.967
   7.100        150.83	    13.454
   7.120        158.33	    13.784
   7.140        162.50	    13.964
   7.160        180.83	    14.731
   7.180        145.83	    13.229
   7.200        185.83	    14.933
   7.220        167.50	    14.177
   7.240        180.00	    14.697
   7.260        186.67	    14.967
   7.280        164.17	    14.036
   7.300        177.50	    14.595
   7.320        163.33	    14.000
   7.340        164.17	    14.036
   7.360        168.33	    14.213
   7.380        183.33	    14.832
   7.400        160.00	    13.856
   7.420        162.50	    13.964
   7.440        174.17	    14.457
   7.460        168.33	    14.213
   7.480        170.00	    14.283
   7.500        165.83	    14.107
   7.520        185.00	    14.900
   7.540        170.00	    14.283
   7.560        163.33	    14.000
   7.580        175.83	    14.526
   7.600        158.33	    13.784
   7.620        148.33	    13.342
   7.640        151.67	    13.491
   7.660        160.83	    13.892
   7.680        173.33	    14.422
   7.700        186.67	    14.967
   7.720        144.17	    13.153
   7.740        170.00	    14.283
   7.760        150.83	    13.454
   7.780        145.00	    13.191
   7.800        155.83	    13.675
   7.820        164.17	    14.036
   7.840        131.67	    12.570
   7.860        161.67	    13.928
   7.880        149.17	    13.379
   7.900        152.50	    13.528
   7.920        151.67	    13.491
   7.940        170.00	    14.283
   7.960        131.67	    12.570
   7.980        155.83	    13.675
   8.000        165.00	    14.071
   8.020        139.17	    12.923
   8.040        147.50	    13.304
   8.060        130.00	    12.490
   8.080        165.83	    14.107
   8.100        144.17	    13.153
   8.120        159.17	    13.820
   8.140        160.00	    13.856
   8.160        156.67	    13.711
   8.180        157.50	    13.748
   8.200        157.50	    13.748
   8.220        149.17	    13.379
   8.240        142.50	    13.077
   8.260        158.33	    13.784
   8.280        142.50	    13.077
   8.300        171.67	    14.353
   8.320        157.50	    13.748
   8.340        165.00	    14.071
   8.360        170.83	    14.318
   8.380        172.50	    14.387
   8.400        185.83	    14.933
   8.420        189.17	    15.067
   8.440        181.67	    14.765
   8.460        163.33	    14.000
   8.480        188.33	    15.033
   8.500        189.17	    15.067
   8.520        213.33	    16.000
   8.540        198.33	    15.427
   8.560        250.00	    17.321
   8.580        249.17	    17.292
   8.600        303.33	    19.079
   8.620        328.33	    19.849
   8.640        404.17	    22.023
   8.660        460.83	    23.516
   8.680        482.50	    24.062
   8.700        474.17	    23.854
   8.720        459.17	    23.473
   8.740        590.83	    26.627
   8.760        794.17	    30.871
   8.780        940.83	    33.601
   8.800        823.33	    31.432
   8.820        548.33	    25.652
   8.840        323.33	    19.698
   8.860        205.83	    15.716
   8.880        211.67	    15.937
   8.900        166.67	    14.142
   8.920        173.33	    14.422
   8.940        150.83	    13.454
   8.960        156.67	    13.711
   8.980        155.00	    13.638
   9.000        156.67	    13.711
   9.020        167.50	    14.177
   9.040        165.83	    14.107
   9.060        157.50	    13.748
   9.080        165.83	    14.107
   9.100        157.50	    13.748
   9.120        130.83	    12.530
   9.140        145.00	    13.191
   9.160        125.83	    12.288
   9.180        128.33	    12.410
   9.200        161.67	    13.928
   9.220        140.83	    13.000
   9.240        125.00	    12.247
   9.260        141.67	    13.038
   9.280        128.33	    12.410
   9.300        146.67	    13.266
   9.320        150.00	    13.416
   9.340        158.33	    13.784
   9.360        186.67	    14.967
   9.380        143.33	    13.115
   9.400        131.67	    12.570
   9.420        123.33	    12.166
   9.440        132.50	    12.610
   9.460        124.17	    12.207
   9.480        132.50	    12.610
   9.500        128.33	    12.410
   9.520        137.50	    12.845
   9.540        123.33	    12.166
   9.560        121.67	    12.083
   9.580        116.67	    11.832
   9.600        122.50	    12.124
   9.620        137.50	    12.845
   9.640        139.17	    12.923
   9.660        135.83	    12.767
   9.680        128.33	    12.410
   9.700        118.33	    11.916
   9.720        117.50	    11.874
   9.740         99.17	    10.909
   9.760        105.83	    11.269
   9.780        113.33	    11.662
   9.800        115.00	    11.747
   9.820        110.00	    11.489
   9.840        111.67	    11.576
   9.860        115.83	    11.790
   9.880        104.17	    11.180
   9.900        122.50	    12.124
   9.920        105.00	    11.225
   9.940        120.83	    12.042
   9.960        118.33	    11.916
   9.980        113.33	    11.662
  10.000        124.17	    12.207
  10.020        110.00	    11.489
  10.040        120.83	    12.042
  10.060        100.83	    11.000
  10.080        104.17	    11.180
  10.100        111.67	    11.576
  10.120        110.00	    11.489
  10.140        113.33	    11.662
  10.160        115.83	    11.790
  10.180        108.33	    11.402
  10.200        100.00	    10.954
  10.220        102.50	    11.091
  10.240        106.67	    11.314
  10.260        102.50	    11.091
  10.280        121.67	    12.083
  10.300        102.50	    11.091
  10.320        121.67	    12.083
  10.340        137.50	    12.845
  10.360        134.17	    12.689
  10.380        141.67	    13.038
  10.400        158.33	    13.784
  10.420        195.00	    15.297
  10.440        193.33	    15.232
  10.460        216.67	    16.125
  10.480        207.50	    15.780
  10.500        187.50	    15.000
  10.520        142.50	    13.077
  10.540        130.00	    12.490
  10.560        105.00	    11.225
  10.580         96.67	    10.770
  10.600        109.17	    11.446
  10.620        115.83	    11.790
  10.640        103.33	    11.136
  10.660         87.50	    10.247
  10.680        115.00	    11.747
  10.700        109.17	    11.446
  10.720        111.67	    11.576
  10.740         95.00	    10.677
  10.760         97.50	    10.817
  10.780        106.67	    11.314
  10.800         83.33	    10.000
  10.820         91.67	    10.488
  10.840         93.33	    10.583
  10.860         90.00	    10.392
  10.880        106.67	    11.314
  10.900        111.67	    11.576
  10.920        118.33	    11.916
  10.940        105.00	    11.225
  10.960        108.33	    11.402
  10.980        108.33	    11.402
  11.000        103.33	    11.136
  11.020        100.00	    10.954
  11.040         98.33	    10.863
  11.060        100.83	    11.000
  11.080         96.67	    10.770
  11.100        102.50	    11.091
  11.120        109.17	    11.446
  11.140         97.50	    10.817
  11.160         77.50	     9.644
  11.180         94.17	    10.630
  11.200        102.50	    11.091
  11.220         80.83	     9.849
  11.240         92.50	    10.536
  11.260        106.67	    11.314
  11.280        103.33	    11.136
  11.300        108.33	    11.402
  11.320        102.50	    11.091
  11.340        114.17	    11.705
  11.360        105.83	    11.269
  11.380        115.00	    11.747
  11.400        105.83	    11.269
  11.420         94.17	    10.630
  11.440         91.67	    10.488
  11.460         81.67	     9.899
  11.480         90.00	    10.392
  11.500        113.33	    11.662
  11.520         86.67	    10.198
  11.540        107.50	    11.358
  11.560        110.83	    11.533
  11.580        109.17	    11.446
  11.600        120.83	    12.042
  11.620        103.33	    11.136
  11.640        105.83	    11.269
  11.660        109.17	    11.446
  11.680        102.50	    11.091
  11.700        115.00	    11.747
  11.720        112.50	    11.619
  11.740        105.00	    11.225
  11.760         85.83	    10.149
  11.780        118.33	    11.916
  11.800        100.00	    10.954
  11.820        102.50	    11.091
  11.840        118.33	    11.916
  11.860        102.50	    11.091
  11.880        121.67	    12.083
  11.900        119.17	    11.958
  11.920        140.00	    12.961
  11.940        131.67	    12.570
  11.960        135.83	    12.767
  11.980        161.67	    13.928
  12.000        163.33	    14.000
  12.020        196.67	    15.362
  12.040        244.17	    17.117
  12.060        321.67	    19.647
  12.080        416.67	    22.361
  12.100        475.00	    23.875
  12.120        363.33	    20.881
  12.140        250.00	    17.321
  12.160        200.83	    15.524
  12.180        187.50	    15.000
  12.200        170.83	    14.318
  12.220        211.67	    15.937
  12.240        200.00	    15.492
  12.260        226.67	    16.492
  12.280        252.50	    17.407
  12.300        226.67	    16.492
  12.320        209.17	    15.843
  12.340        227.50	    16.523
  12.360        287.50	    18.574
  12.380        322.50	    19.672
  12.400        392.50	    21.703
  12.420        368.33	    21.024
  12.440        292.50	    18.735
  12.460        202.50	    15.588
  12.480        141.67	    13.038
  12.500        117.50	    11.874
  12.520        100.83	    11.000
  12.540        109.17	    11.446
  12.560        106.67	    11.314
  12.580         96.67	    10.770
  12.600        125.00	    12.247
  12.620         95.83	    10.724
  12.640        105.00	    11.225
  12.660         92.50	    10.536
  12.680        103.33	    11.136
  12.700         90.83	    10.440
  12.720         93.33	    10.583
  12.740         96.67	    10.770
  12.760         93.33	    10.583
  12.780         81.67	     9.899
  12.800         85.00	    10.100
  12.820         82.50	     9.950
  12.840         78.33	     9.695
  12.860         83.33	    10.000
  12.880         95.00	    10.677
  12.900         85.00	    10.100
  12.920         80.83	     9.849
  12.940         80.83	     9.849
  12.960        103.33	    11.136
  12.980        100.83	    11.000
  13.000         95.00	    10.677
  13.020         89.17	    10.344
  13.040         86.67	    10.198
  13.060         83.33	    10.000
  13.080         84.17	    10.050
  13.100         92.50	    10.536
  13.120         91.67	    10.488
  13.140         97.50	    10.817
  13.160         85.00	    10.100
  13.180         82.50	     9.950
  13.200         71.67	     9.274
  13.220         82.50	     9.950
  13.240         82.50	     9.950
  13.260         85.00	    10.100
  13.280         75.00	     9.487
  13.300         75.83	     9.539
  13.320         73.33	     9.381
  13.340         72.50	     9.327
  13.360         90.83	    10.440
  13.380         85.83	    10.149
  13.400         96.67	    10.770
  13.420         69.17	     9.110
  13.440         73.33	     9.381
  13.460         88.33	    10.296
  13.480         83.33	    10.000
  13.500         75.00	     9.487
  13.520         69.17	     9.110
  13.540         99.17	    10.909
  13.560         90.00	    10.392
  13.580         79.17	     9.747
  13.600         82.50	     9.950
  13.620         91.67	    10.488
  13.640         72.50	     9.327
  13.660         78.33	     9.695
  13.680        104.17	    11.180
  13.700         85.83	    10.149
  13.720         81.67	     9.899
  13.740         85.00	    10.100
  13.760        103.33	    11.136
  13.780         85.00	    10.100
  13.800         88.33	    10.296
  13.820         98.33	    10.863
  13.840         93.33	    10.583
  13.860         75.83	     9.539
  13.880         79.17	     9.747
  13.900         64.17	     8.775
  13.920         79.17	     9.747
  13.940         76.67	     9.592
  13.960         83.33	    10.000
  13.980         75.00	     9.487
  14.000         81.67	     9.899
  14.020         88.33	    10.296
  14.040         78.33	     9.695
  14.060         77.50	     9.644
  14.080         70.83	     9.220
  14.100         79.17	     9.747
  14.120         83.33	    10.000
  14.140         75.00	     9.487
  14.160         68.33	     9.055
  14.180         75.83	     9.539
  14.200         62.50	     8.660
  14.220         79.17	     9.747
  14.240         71.67	     9.274
  14.260         86.67	    10.198
  14.280         77.50	     9.644
  14.300         77.50	     9.644
  14.320         86.67	    10.198
  14.340         83.33	    10.000
  14.360         75.83	     9.539
  14.380         60.00	     8.485
  14.400         98.33	    10.863
