
Filename:
	C:\Program Files\Thermo Electron\WinXRD\Datafiles\F_HERMAN\FIEN\G16_FT.raw

File Created:
	October 04, 2019 - 01:25 PM

Specimen Id:
	G16 FT RT

Specimen Name:
	

Specimen Description:
	

Comment:
Scan Type: 2Theta Scan
Start Angle: 2 deg.
Stop Angle: 65 deg.
Num Points: 3151
Step Size: 0.02 deg.
Scan Rate: 1.000000
Scan Mode: Continuous
Wavelength: 1.540562
\Kalpha1: 1.540562	\Kalpha2: 1.544390	\Kbeta: 1.392218

Optics:
		Detector:
			 Type: Fixed Slits
		Tube: 
			 Type: Fixed Slits


Datas:
 Pos [deg]       Rate [CPS]      ESD [-]

Range 1 ---> Iteration 1
   2.000        988.33	    34.438
   2.020        965.83	    34.044
   2.040        922.50	    33.272
   2.060        898.33	    32.833
   2.080        891.67	    32.711
   2.100        873.33	    32.373
   2.120        864.17	    32.202
   2.140        825.83	    31.480
   2.160        857.50	    32.078
   2.180        839.17	    31.733
   2.200        803.33	    31.048
   2.220        806.67	    31.113
   2.240        825.00	    31.464
   2.260        797.50	    30.935
   2.280        763.33	    30.265
   2.300        745.83	    29.917
   2.320        754.17	    30.083
   2.340        758.33	    30.166
   2.360        771.67	    30.430
   2.380        674.17	    28.443
   2.400        694.17	    28.862
   2.420        720.83	    29.411
   2.440        715.83	    29.309
   2.460        691.67	    28.810
   2.480        715.83	    29.309
   2.500        696.67	    28.914
   2.520        702.50	    29.034
   2.540        692.50	    28.827
   2.560        698.33	    28.948
   2.580        675.83	    28.478
   2.600        626.67	    27.423
   2.620        654.17	    28.018
   2.640        645.00	    27.821
   2.660        652.50	    27.982
   2.680        577.50	    26.325
   2.700        625.83	    27.404
   2.720        600.00	    26.833
   2.740        626.67	    27.423
   2.760        605.00	    26.944
   2.780        580.83	    26.401
   2.800        579.17	    26.363
   2.820        569.17	    26.134
   2.840        558.33	    25.884
   2.860        538.33	    25.417
   2.880        560.00	    25.923
   2.900        559.17	    25.904
   2.920        591.67	    26.646
   2.940        520.83	    25.000
   2.960        567.50	    26.096
   2.980        520.00	    24.980
   3.000        570.00	    26.153
   3.020        557.50	    25.865
   3.040        539.17	    25.436
   3.060        547.50	    25.632
   3.080        565.83	    26.058
   3.100        545.00	    25.573
   3.120        513.33	    24.819
   3.140        501.67	    24.536
   3.160        514.17	    24.839
   3.180        540.83	    25.475
   3.200        515.83	    24.880
   3.220        495.83	    24.393
   3.240        455.83	    23.388
   3.260        537.50	    25.397
   3.280        455.00	    23.367
   3.300        465.83	    23.643
   3.320        485.83	    24.145
   3.340        482.50	    24.062
   3.360        478.33	    23.958
   3.380        476.67	    23.917
   3.400        467.50	    23.685
   3.420        500.00	    24.495
   3.440        466.67	    23.664
   3.460        408.33	    22.136
   3.480        446.67	    23.152
   3.500        452.50	    23.302
   3.520        430.00	    22.716
   3.540        443.33	    23.065
   3.560        414.17	    22.293
   3.580        415.00	    22.316
   3.600        420.83	    22.472
   3.620        414.17	    22.293
   3.640        385.83	    21.517
   3.660        406.67	    22.091
   3.680        410.00	    22.181
   3.700        375.83	    21.237
   3.720        411.67	    22.226
   3.740        414.17	    22.293
   3.760        405.83	    22.068
   3.780        439.17	    22.956
   3.800        385.83	    21.517
   3.820        397.50	    21.840
   3.840        394.17	    21.749
   3.860        407.50	    22.113
   3.880        381.67	    21.401
   3.900        404.17	    22.023
   3.920        397.50	    21.840
   3.940        406.67	    22.091
   3.960        379.17	    21.331
   3.980        344.17	    20.322
   4.000        366.67	    20.976
   4.020        416.67	    22.361
   4.040        390.00	    21.633
   4.060        390.83	    21.656
   4.080        403.33	    22.000
   4.100        371.67	    21.119
   4.120        354.17	    20.616
   4.140        372.50	    21.142
   4.160        370.00	    21.071
   4.180        355.00	    20.640
   4.200        335.83	    20.075
   4.220        380.83	    21.378
   4.240        344.17	    20.322
   4.260        335.00	    20.050
   4.280        350.00	    20.494
   4.300        331.67	    19.950
   4.320        322.50	    19.672
   4.340        361.67	    20.833
   4.360        339.17	    20.174
   4.380        341.67	    20.248
   4.400        298.33	    18.921
   4.420        341.67	    20.248
   4.440        353.33	    20.591
   4.460        342.50	    20.273
   4.480        318.33	    19.545
   4.500        308.33	    19.235
   4.520        343.33	    20.298
   4.540        330.83	    19.925
   4.560        330.00	    19.900
   4.580        297.50	    18.894
   4.600        298.33	    18.921
   4.620        294.17	    18.788
   4.640        302.50	    19.053
   4.660        339.17	    20.174
   4.680        355.83	    20.664
   4.700        282.50	    18.412
   4.720        300.00	    18.974
   4.740        315.83	    19.468
   4.760        320.00	    19.596
   4.780        311.67	    19.339
   4.800        295.00	    18.815
   4.820        314.17	    19.416
   4.840        311.67	    19.339
   4.860        278.33	    18.276
   4.880        295.83	    18.841
   4.900        293.33	    18.762
   4.920        272.50	    18.083
   4.940        320.83	    19.621
   4.960        265.83	    17.861
   4.980        289.17	    18.628
   5.000        318.33	    19.545
   5.020        284.17	    18.466
   5.040        307.50	    19.209
   5.060        284.17	    18.466
   5.080        289.17	    18.628
   5.100        308.33	    19.235
   5.120        296.67	    18.868
   5.140        282.50	    18.412
   5.160        268.33	    17.944
   5.180        305.83	    19.157
   5.200        311.67	    19.339
   5.220        274.17	    18.138
   5.240        277.50	    18.248
   5.260        299.17	    18.947
   5.280        304.17	    19.105
   5.300        295.00	    18.815
   5.320        280.83	    18.358
   5.340        291.67	    18.708
   5.360        310.83	    19.313
   5.380        308.33	    19.235
   5.400        286.67	    18.547
   5.420        290.00	    18.655
   5.440        267.50	    17.916
   5.460        285.00	    18.493
   5.480        277.50	    18.248
   5.500        344.17	    20.322
   5.520        302.50	    19.053
   5.540        308.33	    19.235
   5.560        321.67	    19.647
   5.580        314.17	    19.416
   5.600        303.33	    19.079
   5.620        348.33	    20.445
   5.640        342.50	    20.273
   5.660        336.67	    20.100
   5.680        377.50	    21.284
   5.700        409.17	    22.159
   5.720        430.00	    22.716
   5.740        489.17	    24.228
   5.760        524.17	    25.080
   5.780        584.17	    26.476
   5.800        681.67	    28.601
   5.820        733.33	    29.665
   5.840        888.33	    32.650
   5.860        750.83	    30.017
   5.880        637.50	    27.659
   5.900        582.50	    26.439
   5.920        504.17	    24.597
   5.940        480.83	    24.021
   5.960        499.17	    24.474
   5.980        541.67	    25.495
   6.000        583.33	    26.458
   6.020        631.67	    27.532
   6.040        634.17	    27.586
   6.060        685.00	    28.671
   6.080        715.83	    29.309
   6.100        726.67	    29.530
   6.120        655.83	    28.054
   6.140        486.67	    24.166
   6.160        369.17	    21.048
   6.180        339.17	    20.174
   6.200        311.67	    19.339
   6.220        285.83	    18.520
   6.240        258.33	    17.607
   6.260        268.33	    17.944
   6.280        266.67	    17.889
   6.300        266.67	    17.889
   6.320        264.17	    17.804
   6.340        274.17	    18.138
   6.360        234.17	    16.763
   6.380        227.50	    16.523
   6.400        246.67	    17.205
   6.420        251.67	    17.378
   6.440        284.17	    18.466
   6.460        264.17	    17.804
   6.480        242.50	    17.059
   6.500        254.17	    17.464
   6.520        233.33	    16.733
   6.540        235.00	    16.793
   6.560        254.17	    17.464
   6.580        210.00	    15.875
   6.600        237.50	    16.882
   6.620        235.00	    16.793
   6.640        225.83	    16.462
   6.660        268.33	    17.944
   6.680        220.00	    16.248
   6.700        232.50	    16.703
   6.720        231.67	    16.673
   6.740        230.83	    16.643
   6.760        223.33	    16.371
   6.780        241.67	    17.029
   6.800        222.50	    16.340
   6.820        229.17	    16.583
   6.840        210.83	    15.906
   6.860        219.17	    16.217
   6.880        208.33	    15.811
   6.900        205.83	    15.716
   6.920        213.33	    16.000
   6.940        200.00	    15.492
   6.960        216.67	    16.125
   6.980        221.67	    16.310
   7.000        176.67	    14.560
   7.020        215.00	    16.062
   7.040        219.17	    16.217
   7.060        225.83	    16.462
   7.080        211.67	    15.937
   7.100        194.17	    15.264
   7.120        216.67	    16.125
   7.140        217.50	    16.155
   7.160        198.33	    15.427
   7.180        208.33	    15.811
   7.200        215.83	    16.093
   7.220        185.83	    14.933
   7.240        213.33	    16.000
   7.260        220.00	    16.248
   7.280        215.00	    16.062
   7.300        221.67	    16.310
   7.320        195.83	    15.330
   7.340        200.83	    15.524
   7.360        205.00	    15.684
   7.380        228.33	    16.553
   7.400        204.17	    15.652
   7.420        192.50	    15.199
   7.440        198.33	    15.427
   7.460        194.17	    15.264
   7.480        176.67	    14.560
   7.500        186.67	    14.967
   7.520        185.83	    14.933
   7.540        191.67	    15.166
   7.560        204.17	    15.652
   7.580        192.50	    15.199
   7.600        175.00	    14.491
   7.620        196.67	    15.362
   7.640        200.00	    15.492
   7.660        195.83	    15.330
   7.680        175.00	    14.491
   7.700        191.67	    15.166
   7.720        185.83	    14.933
   7.740        185.00	    14.900
   7.760        177.50	    14.595
   7.780        212.50	    15.969
   7.800        195.83	    15.330
   7.820        191.67	    15.166
   7.840        178.33	    14.629
   7.860        180.00	    14.697
   7.880        194.17	    15.264
   7.900        210.83	    15.906
   7.920        196.67	    15.362
   7.940        210.83	    15.906
   7.960        190.83	    15.133
   7.980        180.83	    14.731
   8.000        198.33	    15.427
   8.020        185.00	    14.900
   8.040        175.83	    14.526
   8.060        186.67	    14.967
   8.080        180.00	    14.697
   8.100        190.83	    15.133
   8.120        185.83	    14.933
   8.140        195.00	    15.297
   8.160        206.67	    15.748
   8.180        217.50	    16.155
   8.200        210.83	    15.906
   8.220        187.50	    15.000
   8.240        221.67	    16.310
   8.260        210.00	    15.875
   8.280        243.33	    17.088
   8.300        208.33	    15.811
   8.320        225.00	    16.432
   8.340        205.00	    15.684
   8.360        231.67	    16.673
   8.380        260.83	    17.692
   8.400        231.67	    16.673
   8.420        248.33	    17.263
   8.440        266.67	    17.889
   8.460        280.00	    18.330
   8.480        272.50	    18.083
   8.500        301.67	    19.026
   8.520        348.33	    20.445
   8.540        352.50	    20.567
   8.560        378.33	    21.307
   8.580        425.00	    22.583
   8.600        472.50	    23.812
   8.620        525.83	    25.120
   8.640        564.17	    26.019
   8.660        585.83	    26.514
   8.680        700.00	    28.983
   8.700        913.33	    33.106
   8.720       1298.33	    39.472
   8.740       1790.83	    46.357
   8.760       1786.67	    46.303
   8.780       1574.17	    43.463
   8.800        907.50	    33.000
   8.820        512.50	    24.799
   8.840        320.83	    19.621
   8.860        289.17	    18.628
   8.880        258.33	    17.607
   8.900        225.00	    16.432
   8.920        231.67	    16.673
   8.940        232.50	    16.703
   8.960        210.00	    15.875
   8.980        206.67	    15.748
   9.000        211.67	    15.937
   9.020        229.17	    16.583
   9.040        226.67	    16.492
   9.060        262.50	    17.748
   9.080        233.33	    16.733
   9.100        201.67	    15.556
   9.120        193.33	    15.232
   9.140        187.50	    15.000
   9.160        157.50	    13.748
   9.180        163.33	    14.000
   9.200        185.00	    14.900
   9.220        211.67	    15.937
   9.240        230.83	    16.643
   9.260        255.00	    17.493
   9.280        258.33	    17.607
   9.300        290.83	    18.682
   9.320        358.33	    20.736
   9.340        341.67	    20.248
   9.360        252.50	    17.407
   9.380        173.33	    14.422
   9.400        160.83	    13.892
   9.420        165.00	    14.071
   9.440        155.00	    13.638
   9.460        166.67	    14.142
   9.480        157.50	    13.748
   9.500        135.00	    12.728
   9.520        145.83	    13.229
   9.540        161.67	    13.928
   9.560        143.33	    13.115
   9.580        149.17	    13.379
   9.600        156.67	    13.711
   9.620        140.83	    13.000
   9.640        159.17	    13.820
   9.660        158.33	    13.784
   9.680        120.83	    12.042
   9.700        124.17	    12.207
   9.720        128.33	    12.410
   9.740        124.17	    12.207
   9.760        152.50	    13.528
   9.780        135.83	    12.767
   9.800        129.17	    12.450
   9.820        136.67	    12.806
   9.840        125.83	    12.288
   9.860        110.00	    11.489
   9.880        157.50	    13.748
   9.900        110.83	    11.533
   9.920        127.50	    12.369
   9.940        135.00	    12.728
   9.960        126.67	    12.329
   9.980        136.67	    12.806
  10.000        120.83	    12.042
  10.020        138.33	    12.884
  10.040        136.67	    12.806
  10.060        118.33	    11.916
  10.080        121.67	    12.083
  10.100        118.33	    11.916
  10.120        119.17	    11.958
  10.140        127.50	    12.369
  10.160        135.00	    12.728
  10.180        136.67	    12.806
  10.200        134.17	    12.689
  10.220        145.00	    13.191
  10.240        145.00	    13.191
  10.260        153.33	    13.565
  10.280        136.67	    12.806
  10.300        147.50	    13.304
  10.320        165.83	    14.107
  10.340        185.83	    14.933
  10.360        247.50	    17.234
  10.380        269.17	    17.972
  10.400        306.67	    19.183
  10.420        285.83	    18.520
  10.440        200.83	    15.524
  10.460        168.33	    14.213
  10.480        119.17	    11.958
  10.500        115.00	    11.747
  10.520        135.83	    12.767
  10.540        130.00	    12.490
  10.560        105.00	    11.225
  10.580        136.67	    12.806
  10.600        137.50	    12.845
  10.620        123.33	    12.166
  10.640        132.50	    12.610
  10.660        133.33	    12.649
  10.680        120.00	    12.000
  10.700        128.33	    12.410
  10.720        118.33	    11.916
  10.740        112.50	    11.619
  10.760        106.67	    11.314
  10.780        121.67	    12.083
  10.800        125.00	    12.247
  10.820        131.67	    12.570
  10.840        112.50	    11.619
  10.860        129.17	    12.450
  10.880        128.33	    12.410
  10.900        145.00	    13.191
  10.920        115.00	    11.747
  10.940        129.17	    12.450
  10.960        110.00	    11.489
  10.980        110.83	    11.533
  11.000        116.67	    11.832
  11.020        115.00	    11.747
  11.040        113.33	    11.662
  11.060        117.50	    11.874
  11.080        127.50	    12.369
  11.100        115.83	    11.790
  11.120        120.83	    12.042
  11.140        129.17	    12.450
  11.160        130.00	    12.490
  11.180        130.00	    12.490
  11.200        120.00	    12.000
  11.220        106.67	    11.314
  11.240        105.00	    11.225
  11.260        108.33	    11.402
  11.280        114.17	    11.705
  11.300        105.00	    11.225
  11.320        113.33	    11.662
  11.340        133.33	    12.649
  11.360        124.17	    12.207
  11.380        111.67	    11.576
  11.400        103.33	    11.136
  11.420        120.83	    12.042
  11.440        123.33	    12.166
  11.460        144.17	    13.153
  11.480        146.67	    13.266
  11.500        140.00	    12.961
  11.520        154.17	    13.601
  11.540        152.50	    13.528
  11.560        137.50	    12.845
  11.580        157.50	    13.748
  11.600        124.17	    12.207
  11.620        150.00	    13.416
  11.640        133.33	    12.649
  11.660        136.67	    12.806
  11.680        135.00	    12.728
  11.700        159.17	    13.820
  11.720        163.33	    14.000
  11.740        150.83	    13.454
  11.760        180.83	    14.731
  11.780        193.33	    15.232
  11.800        201.67	    15.556
  11.820        202.50	    15.588
  11.840        225.83	    16.462
  11.860        218.33	    16.186
  11.880        253.33	    17.436
  11.900        284.17	    18.466
  11.920        365.00	    20.928
  11.940        491.67	    24.290
  11.960        574.17	    26.249
  11.980        731.67	    29.631
  12.000       1087.50	    36.125
  12.020       1757.50	    45.924
  12.040       2865.00	    58.634
  12.060       3789.17	    67.431
  12.080       3757.50	    67.149
  12.100       2855.00	    58.532
  12.120       1600.83	    43.829
  12.140        944.17	    33.660
  12.160        726.67	    29.530
  12.180        741.67	    29.833
  12.200        790.83	    30.806
  12.220        890.00	    32.680
  12.240        865.00	    32.218
  12.260        784.17	    30.676
  12.280        709.17	    29.172
  12.300        689.17	    28.758
  12.320        705.83	    29.103
  12.340        865.00	    32.218
  12.360        943.33	    33.645
  12.380        940.83	    33.601
  12.400        738.33	    29.766
  12.420        524.17	    25.080
  12.440        295.00	    18.815
  12.460        222.50	    16.340
  12.480        195.00	    15.297
  12.500        182.50	    14.799
  12.520        177.50	    14.595
  12.540        167.50	    14.177
  12.560        172.50	    14.387
  12.580        142.50	    13.077
  12.600        138.33	    12.884
  12.620        148.33	    13.342
  12.640        143.33	    13.115
  12.660        130.00	    12.490
  12.680        139.17	    12.923
  12.700        128.33	    12.410
  12.720        128.33	    12.410
  12.740        126.67	    12.329
  12.760        129.17	    12.450
  12.780        116.67	    11.832
  12.800        128.33	    12.410
  12.820        109.17	    11.446
  12.840        130.00	    12.490
  12.860        108.33	    11.402
  12.880        117.50	    11.874
  12.900        105.00	    11.225
  12.920        120.00	    12.000
  12.940        115.00	    11.747
  12.960        109.17	    11.446
  12.980         86.67	    10.198
  13.000        107.50	    11.358
  13.020        117.50	    11.874
  13.040        100.00	    10.954
  13.060        120.00	    12.000
  13.080        123.33	    12.166
  13.100        118.33	    11.916
  13.120        105.83	    11.269
  13.140        115.83	    11.790
  13.160        104.17	    11.180
  13.180        128.33	    12.410
  13.200        120.00	    12.000
  13.220        105.83	    11.269
  13.240        134.17	    12.689
  13.260         99.17	    10.909
  13.280        126.67	    12.329
  13.300        115.00	    11.747
  13.320        118.33	    11.916
  13.340        114.17	    11.705
  13.360        116.67	    11.832
  13.380        105.83	    11.269
  13.400        112.50	    11.619
