
Filename:
	C:\Program Files\Thermo Electron\WinXRD\Datafiles\F_HERMAN\GEO\G18_RT.raw

File Created:
	February 21, 2020 - 05:29 PM

Specimen Id:
	G18_RT

Specimen Name:
	

Specimen Description:
	

Comment:
Scan Type: 2Theta Scan
Start Angle: 3 deg.
Stop Angle: 65 deg.
Num Points: 3101
Step Size: 0.02 deg.
Scan Rate: 1.000000
Scan Mode: Continuous
Wavelength: 1.540562
\Kalpha1: 1.540562	\Kalpha2: 1.544390	\Kbeta: 1.392218

Optics:
		Detector:
			 Type: Fixed Slits
		Tube: 
			 Type: Fixed Slits


Datas:
 Pos [deg]       Rate [CPS]      ESD [-]

Range 1 ---> Iteration 1
   3.000        426.67	    22.627
   3.020        474.17	    23.854
   3.040        434.17	    22.825
   3.060        420.00	    22.450
   3.080        377.50	    21.284
   3.100        459.17	    23.473
   3.120        414.17	    22.293
   3.140        400.83	    21.932
   3.160        415.00	    22.316
   3.180        431.67	    22.760
   3.200        385.00	    21.494
   3.220        401.67	    21.954
   3.240        401.67	    21.954
   3.260        400.00	    21.909
   3.280        387.50	    21.564
   3.300        359.17	    20.761
   3.320        369.17	    21.048
   3.340        361.67	    20.833
   3.360        405.00	    22.045
   3.380        391.67	    21.679
   3.400        374.17	    21.190
   3.420        390.00	    21.633
   3.440        385.00	    21.494
   3.460        381.67	    21.401
   3.480        356.67	    20.688
   3.500        386.67	    21.541
   3.520        357.50	    20.712
   3.540        356.67	    20.688
   3.560        359.17	    20.761
   3.580        337.50	    20.125
   3.600        370.83	    21.095
   3.620        360.83	    20.809
   3.640        359.17	    20.761
   3.660        315.00	    19.442
   3.680        323.33	    19.698
   3.700        351.67	    20.543
   3.720        355.00	    20.640
   3.740        349.17	    20.469
   3.760        347.50	    20.421
   3.780        335.00	    20.050
   3.800        325.83	    19.774
   3.820        306.67	    19.183
   3.840        355.83	    20.664
   3.860        320.00	    19.596
   3.880        330.00	    19.900
   3.900        330.83	    19.925
   3.920        335.83	    20.075
   3.940        320.00	    19.596
   3.960        304.17	    19.105
   3.980        330.00	    19.900
   4.000        324.17	    19.723
   4.020        295.00	    18.815
   4.040        301.67	    19.026
   4.060        293.33	    18.762
   4.080        310.83	    19.313
   4.100        310.83	    19.313
   4.120        294.17	    18.788
   4.140        278.33	    18.276
   4.160        274.17	    18.138
   4.180        314.17	    19.416
   4.200        295.00	    18.815
   4.220        284.17	    18.466
   4.240        291.67	    18.708
   4.260        287.50	    18.574
   4.280        285.00	    18.493
   4.300        257.50	    17.578
   4.320        277.50	    18.248
   4.340        283.33	    18.439
   4.360        258.33	    17.607
   4.380        278.33	    18.276
   4.400        284.17	    18.466
   4.420        294.17	    18.788
   4.440        256.67	    17.550
   4.460        247.50	    17.234
   4.480        285.83	    18.520
   4.500        279.17	    18.303
   4.520        260.83	    17.692
   4.540        254.17	    17.464
   4.560        263.33	    17.776
   4.580        260.00	    17.664
   4.600        253.33	    17.436
   4.620        246.67	    17.205
   4.640        250.00	    17.321
   4.660        242.50	    17.059
   4.680        270.00	    18.000
   4.700        257.50	    17.578
   4.720        232.50	    16.703
   4.740        277.50	    18.248
   4.760        251.67	    17.378
   4.780        257.50	    17.578
   4.800        257.50	    17.578
   4.820        277.50	    18.248
   4.840        247.50	    17.234
   4.860        258.33	    17.607
   4.880        237.50	    16.882
   4.900        227.50	    16.523
   4.920        246.67	    17.205
   4.940        248.33	    17.263
   4.960        248.33	    17.263
   4.980        227.50	    16.523
   5.000        249.17	    17.292
   5.020        236.67	    16.852
   5.040        227.50	    16.523
   5.060        256.67	    17.550
   5.080        226.67	    16.492
   5.100        234.17	    16.763
   5.120        217.50	    16.155
   5.140        237.50	    16.882
   5.160        242.50	    17.059
   5.180        250.83	    17.349
   5.200        220.00	    16.248
   5.220        255.83	    17.521
   5.240        201.67	    15.556
   5.260        244.17	    17.117
   5.280        225.00	    16.432
   5.300        209.17	    15.843
   5.320        235.83	    16.823
   5.340        207.50	    15.780
   5.360        225.00	    16.432
   5.380        215.83	    16.093
   5.400        207.50	    15.780
   5.420        203.33	    15.620
   5.440        217.50	    16.155
   5.460        220.00	    16.248
   5.480        206.67	    15.748
   5.500        215.83	    16.093
   5.520        228.33	    16.553
   5.540        207.50	    15.780
   5.560        193.33	    15.232
   5.580        210.83	    15.906
   5.600        229.17	    16.583
   5.620        210.83	    15.906
   5.640        212.50	    15.969
   5.660        233.33	    16.733
   5.680        243.33	    17.088
   5.700        220.83	    16.279
   5.720        237.50	    16.882
   5.740        241.67	    17.029
   5.760        243.33	    17.088
   5.780        238.33	    16.912
   5.800        240.00	    16.971
   5.820        239.17	    16.941
   5.840        216.67	    16.125
   5.860        218.33	    16.186
   5.880        292.50	    18.735
   5.900        287.50	    18.574
   5.920        311.67	    19.339
   5.940        316.67	    19.494
   5.960        305.83	    19.157
   5.980        305.00	    19.131
   6.000        301.67	    19.026
   6.020        305.00	    19.131
   6.040        316.67	    19.494
   6.060        335.00	    20.050
   6.080        300.00	    18.974
   6.100        336.67	    20.100
   6.120        318.33	    19.545
   6.140        375.00	    21.213
   6.160        340.00	    20.199
   6.180        280.00	    18.330
   6.200        245.83	    17.176
   6.220        225.00	    16.432
   6.240        190.83	    15.133
   6.260        208.33	    15.811
   6.280        220.83	    16.279
   6.300        178.33	    14.629
   6.320        212.50	    15.969
   6.340        215.00	    16.062
   6.360        185.83	    14.933
   6.380        173.33	    14.422
   6.400        190.83	    15.133
   6.420        215.00	    16.062
   6.440        190.00	    15.100
   6.460        214.17	    16.031
   6.480        197.50	    15.395
   6.500        187.50	    15.000
   6.520        206.67	    15.748
   6.540        190.83	    15.133
   6.560        173.33	    14.422
   6.580        201.67	    15.556
   6.600        175.00	    14.491
   6.620        160.00	    13.856
   6.640        178.33	    14.629
   6.660        173.33	    14.422
   6.680        182.50	    14.799
   6.700        171.67	    14.353
   6.720        167.50	    14.177
   6.740        178.33	    14.629
   6.760        169.17	    14.248
   6.780        183.33	    14.832
   6.800        197.50	    15.395
   6.820        176.67	    14.560
   6.840        175.00	    14.491
   6.860        177.50	    14.595
   6.880        174.17	    14.457
   6.900        173.33	    14.422
   6.920        176.67	    14.560
   6.940        168.33	    14.213
   6.960        157.50	    13.748
   6.980        178.33	    14.629
   7.000        169.17	    14.248
   7.020        175.83	    14.526
   7.040        157.50	    13.748
   7.060        164.17	    14.036
   7.080        172.50	    14.387
   7.100        157.50	    13.748
   7.120        171.67	    14.353
   7.140        167.50	    14.177
   7.160        176.67	    14.560
   7.180        156.67	    13.711
   7.200        176.67	    14.560
   7.220        167.50	    14.177
   7.240        182.50	    14.799
   7.260        166.67	    14.142
   7.280        165.00	    14.071
   7.300        156.67	    13.711
   7.320        172.50	    14.387
   7.340        161.67	    13.928
   7.360        139.17	    12.923
   7.380        158.33	    13.784
   7.400        140.83	    13.000
   7.420        149.17	    13.379
   7.440        161.67	    13.928
   7.460        140.00	    12.961
   7.480        169.17	    14.248
   7.500        170.83	    14.318
   7.520        159.17	    13.820
   7.540        154.17	    13.601
   7.560        146.67	    13.266
   7.580        154.17	    13.601
   7.600        166.67	    14.142
   7.620        151.67	    13.491
   7.640        149.17	    13.379
   7.660        148.33	    13.342
   7.680        135.83	    12.767
   7.700        151.67	    13.491
   7.720        171.67	    14.353
   7.740        152.50	    13.528
   7.760        157.50	    13.748
   7.780        150.83	    13.454
   7.800        145.00	    13.191
   7.820        162.50	    13.964
   7.840        145.00	    13.191
   7.860        140.00	    12.961
   7.880        153.33	    13.565
   7.900        137.50	    12.845
   7.920        147.50	    13.304
   7.940        133.33	    12.649
   7.960        145.00	    13.191
   7.980        155.00	    13.638
   8.000        140.83	    13.000
   8.020        163.33	    14.000
   8.040        155.83	    13.675
   8.060        146.67	    13.266
   8.080        175.00	    14.491
   8.100        174.17	    14.457
   8.120        143.33	    13.115
   8.140        170.00	    14.283
   8.160        154.17	    13.601
   8.180        159.17	    13.820
   8.200        150.00	    13.416
   8.220        155.83	    13.675
   8.240        157.50	    13.748
   8.260        140.00	    12.961
   8.280        154.17	    13.601
   8.300        139.17	    12.923
   8.320        166.67	    14.142
   8.340        161.67	    13.928
   8.360        168.33	    14.213
   8.380        180.83	    14.731
   8.400        169.17	    14.248
   8.420        165.83	    14.107
   8.440        177.50	    14.595
   8.460        180.83	    14.731
   8.480        201.67	    15.556
   8.500        175.00	    14.491
   8.520        205.83	    15.716
   8.540        221.67	    16.310
   8.560        254.17	    17.464
   8.580        250.83	    17.349
   8.600        264.17	    17.804
   8.620        281.67	    18.385
   8.640        280.00	    18.330
   8.660        331.67	    19.950
   8.680        405.83	    22.068
   8.700        497.50	    24.434
   8.720        514.17	    24.839
   8.740        571.67	    26.192
   8.760        784.17	    30.676
   8.780       1103.33	    36.387
   8.800       1066.67	    35.777
   8.820        874.17	    32.388
   8.840        520.00	    24.980
   8.860        272.50	    18.083
   8.880        211.67	    15.937
   8.900        190.00	    15.100
   8.920        180.83	    14.731
   8.940        158.33	    13.784
   8.960        159.17	    13.820
   8.980        166.67	    14.142
   9.000        180.83	    14.731
   9.020        145.00	    13.191
   9.040        157.50	    13.748
   9.060        186.67	    14.967
   9.080        158.33	    13.784
   9.100        175.00	    14.491
   9.120        137.50	    12.845
   9.140        135.00	    12.728
   9.160        143.33	    13.115
   9.180        145.00	    13.191
   9.200        118.33	    11.916
   9.220        134.17	    12.689
   9.240        140.83	    13.000
   9.260        122.50	    12.124
   9.280        142.50	    13.077
   9.300        138.33	    12.884
   9.320        150.83	    13.454
   9.340        173.33	    14.422
   9.360        178.33	    14.629
   9.380        151.67	    13.491
   9.400        129.17	    12.450
   9.420        137.50	    12.845
   9.440        113.33	    11.662
   9.460        117.50	    11.874
   9.480        138.33	    12.884
   9.500         98.33	    10.863
   9.520        127.50	    12.369
   9.540        140.83	    13.000
   9.560        109.17	    11.446
   9.580        110.00	    11.489
   9.600        124.17	    12.207
   9.620        141.67	    13.038
   9.640        124.17	    12.207
   9.660        111.67	    11.576
   9.680        115.00	    11.747
   9.700        116.67	    11.832
   9.720        119.17	    11.958
   9.740        122.50	    12.124
   9.760        116.67	    11.832
   9.780        110.83	    11.533
   9.800        120.83	    12.042
   9.820         99.17	    10.909
   9.840        124.17	    12.207
   9.860        110.00	    11.489
   9.880        100.83	    11.000
   9.900        108.33	    11.402
   9.920        105.83	    11.269
   9.940        110.00	    11.489
   9.960        102.50	    11.091
   9.980        105.00	    11.225
  10.000        101.67	    11.045
  10.020         95.00	    10.677
  10.040        116.67	    11.832
  10.060        112.50	    11.619
  10.080        112.50	    11.619
  10.100        105.00	    11.225
  10.120        105.83	    11.269
  10.140         91.67	    10.488
  10.160         95.83	    10.724
  10.180         99.17	    10.909
  10.200        125.00	    12.247
  10.220        115.00	    11.747
  10.240        105.83	    11.269
  10.260        115.83	    11.790
  10.280        125.00	    12.247
  10.300        115.00	    11.747
  10.320        121.67	    12.083
  10.340        107.50	    11.358
  10.360        145.00	    13.191
  10.380        156.67	    13.711
  10.400        165.00	    14.071
  10.420        176.67	    14.560
  10.440        157.50	    13.748
  10.460        127.50	    12.369
  10.480        132.50	    12.610
  10.500        137.50	    12.845
  10.520         99.17	    10.909
  10.540        115.83	    11.790
  10.560         98.33	    10.863
  10.580         78.33	     9.695
  10.600        108.33	    11.402
  10.620        105.83	    11.269
  10.640         99.17	    10.909
  10.660         99.17	    10.909
  10.680        117.50	    11.874
  10.700         94.17	    10.630
  10.720        113.33	    11.662
  10.740        106.67	    11.314
  10.760        124.17	    12.207
  10.780        105.00	    11.225
  10.800        102.50	    11.091
  10.820         98.33	    10.863
  10.840        115.83	    11.790
  10.860         96.67	    10.770
  10.880        105.00	    11.225
  10.900        110.83	    11.533
  10.920        108.33	    11.402
  10.940        104.17	    11.180
  10.960        104.17	    11.180
  10.980         98.33	    10.863
  11.000         88.33	    10.296
  11.020         99.17	    10.909
  11.040        106.67	    11.314
  11.060        100.83	    11.000
  11.080        100.83	    11.000
  11.100         97.50	    10.817
  11.120         83.33	    10.000
  11.140         90.83	    10.440
  11.160         90.00	    10.392
  11.180        101.67	    11.045
  11.200         97.50	    10.817
  11.220         85.83	    10.149
  11.240        101.67	    11.045
  11.260         93.33	    10.583
  11.280        105.83	    11.269
  11.300         92.50	    10.536
  11.320         91.67	    10.488
  11.340        102.50	    11.091
  11.360        100.83	    11.000
  11.380        110.00	    11.489
  11.400        101.67	    11.045
  11.420         98.33	    10.863
  11.440         81.67	     9.899
  11.460        100.83	    11.000
  11.480         86.67	    10.198
  11.500         98.33	    10.863
  11.520         95.00	    10.677
  11.540         94.17	    10.630
  11.560        100.83	    11.000
  11.580         94.17	    10.630
  11.600        100.00	    10.954
  11.620         95.00	    10.677
  11.640        109.17	    11.446
  11.660         83.33	    10.000
  11.680         77.50	     9.644
  11.700         83.33	    10.000
  11.720        112.50	    11.619
  11.740        105.00	    11.225
  11.760         96.67	    10.770
  11.780         80.83	     9.849
  11.800         89.17	    10.344
  11.820         92.50	    10.536
  11.840        100.83	    11.000
  11.860         89.17	    10.344
  11.880        112.50	    11.619
  11.900        100.00	    10.954
  11.920        111.67	    11.576
  11.940        122.50	    12.124
  11.960        113.33	    11.662
  11.980        128.33	    12.410
  12.000        154.17	    13.601
  12.020        211.67	    15.937
  12.040        234.17	    16.763
  12.060        288.33	    18.601
  12.080        361.67	    20.833
  12.100        431.67	    22.760
  12.120        433.33	    22.804
  12.140        340.83	    20.224
  12.160        228.33	    16.553
  12.180        175.00	    14.491
  12.200        166.67	    14.142
  12.220        171.67	    14.353
  12.240        177.50	    14.595
  12.260        192.50	    15.199
  12.280        179.17	    14.663
  12.300        202.50	    15.588
  12.320        178.33	    14.629
  12.340        232.50	    16.703
  12.360        255.00	    17.493
  12.380        330.00	    19.900
  12.400        415.00	    22.316
  12.420        460.83	    23.516
  12.440        345.83	    20.372
  12.460        287.50	    18.574
  12.480        195.00	    15.297
  12.500        117.50	    11.874
  12.520        115.00	    11.747
  12.540        107.50	    11.358
  12.560        121.67	    12.083
  12.580        100.00	    10.954
  12.600         94.17	    10.630
  12.620        102.50	    11.091
  12.640        102.50	    11.091
  12.660        112.50	    11.619
  12.680         80.83	     9.849
  12.700         86.67	    10.198
  12.720         91.67	    10.488
  12.740         88.33	    10.296
  12.760        100.83	    11.000
  12.780         75.00	     9.487
  12.800         85.83	    10.149
  12.820         67.50	     9.000
  12.840         85.83	    10.149
  12.860         84.17	    10.050
  12.880         72.50	     9.327
  12.900         86.67	    10.198
  12.920         85.00	    10.100
  12.940         70.83	     9.220
  12.960         83.33	    10.000
  12.980         78.33	     9.695
  13.000         96.67	    10.770
  13.020         90.83	    10.440
  13.040         75.83	     9.539
  13.060         81.67	     9.899
  13.080        103.33	    11.136
  13.100         98.33	    10.863
  13.120         84.17	    10.050
  13.140         81.67	     9.899
  13.160         80.00	     9.798
  13.180         93.33	    10.583
  13.200         82.50	     9.950
  13.220         74.17	     9.434
  13.240         83.33	    10.000
  13.260         76.67	     9.592
  13.280         82.50	     9.950
  13.300         60.00	     8.485
  13.320         80.00	     9.798
  13.340         84.17	    10.050
  13.360         74.17	     9.434
  13.380         94.17	    10.630
  13.400         74.17	     9.434
  13.420         85.83	    10.149
  13.440         80.83	     9.849
  13.460         78.33	     9.695
  13.480         75.83	     9.539
  13.500        100.00	    10.954
  13.520         76.67	     9.592
  13.540         96.67	    10.770
  13.560        105.00	    11.225
  13.580        115.83	    11.790
  13.600         75.83	     9.539
  13.620         90.83	    10.440
  13.640         85.00	    10.100
  13.660         78.33	     9.695
  13.680         82.50	     9.950
  13.700         92.50	    10.536
  13.720         99.17	    10.909
  13.740         90.83	    10.440
  13.760        110.00	    11.489
  13.780        127.50	    12.369
  13.800        198.33	    15.427
  13.820        325.83	    19.774
  13.840        355.00	    20.640
  13.860        230.83	    16.643
  13.880        175.83	    14.526
  13.900        108.33	    11.402
  13.920         85.00	    10.100
  13.940         56.67	     8.246
  13.960         66.67	     8.944
  13.980         75.83	     9.539
  14.000         87.50	    10.247
  14.020         73.33	     9.381
  14.040         76.67	     9.592
  14.060         81.67	     9.899
  14.080         75.00	     9.487
  14.100         74.17	     9.434
  14.120         67.50	     9.000
  14.140         76.67	     9.592
  14.160         58.33	     8.367
  14.180         82.50	     9.950
  14.200         59.17	     8.426
  14.220         63.33	     8.718
  14.240         69.17	     9.110
  14.260         69.17	     9.110
  14.280         66.67	     8.944
  14.300         85.00	    10.100
  14.320         66.67	     8.944
  14.340         75.83	     9.539
  14.360         68.33	     9.055
  14.380         70.83	     9.220
  14.400         66.67	     8.944
