
Filename:
	C:\Program Files\Thermo Electron\WinXRD\Datafiles\F_HERMAN\GEO\G20_RT.raw

File Created:
	February 21, 2020 - 06:32 PM

Specimen Id:
	G20_RT

Specimen Name:
	

Specimen Description:
	

Comment:
Scan Type: 2Theta Scan
Start Angle: 3 deg.
Stop Angle: 65 deg.
Num Points: 3101
Step Size: 0.02 deg.
Scan Rate: 1.000000
Scan Mode: Continuous
Wavelength: 1.540562
\Kalpha1: 1.540562	\Kalpha2: 1.544390	\Kbeta: 1.392218

Optics:
		Detector:
			 Type: Fixed Slits
		Tube: 
			 Type: Fixed Slits


Datas:
 Pos [deg]       Rate [CPS]      ESD [-]

Range 1 ---> Iteration 1
   3.000        390.83	    21.656
   3.020        379.17	    21.331
   3.040        391.67	    21.679
   3.060        385.83	    21.517
   3.080        395.00	    21.772
   3.100        370.83	    21.095
   3.120        389.17	    21.610
   3.140        342.50	    20.273
   3.160        389.17	    21.610
   3.180        396.67	    21.817
   3.200        342.50	    20.273
   3.220        410.83	    22.204
   3.240        362.50	    20.857
   3.260        389.17	    21.610
   3.280        345.83	    20.372
   3.300        376.67	    21.260
   3.320        341.67	    20.248
   3.340        357.50	    20.712
   3.360        354.17	    20.616
   3.380        379.17	    21.331
   3.400        352.50	    20.567
   3.420        358.33	    20.736
   3.440        340.83	    20.224
   3.460        333.33	    20.000
   3.480        380.00	    21.354
   3.500        361.67	    20.833
   3.520        314.17	    19.416
   3.540        340.00	    20.199
   3.560        348.33	    20.445
   3.580        336.67	    20.100
   3.600        331.67	    19.950
   3.620        309.17	    19.261
   3.640        324.17	    19.723
   3.660        304.17	    19.105
   3.680        340.00	    20.199
   3.700        305.00	    19.131
   3.720        313.33	    19.391
   3.740        311.67	    19.339
   3.760        312.50	    19.365
   3.780        355.00	    20.640
   3.800        322.50	    19.672
   3.820        290.83	    18.682
   3.840        299.17	    18.947
   3.860        313.33	    19.391
   3.880        304.17	    19.105
   3.900        330.00	    19.900
   3.920        285.00	    18.493
   3.940        295.00	    18.815
   3.960        305.83	    19.157
   3.980        274.17	    18.138
   4.000        299.17	    18.947
   4.020        275.00	    18.166
   4.040        270.00	    18.000
   4.060        312.50	    19.365
   4.080        290.00	    18.655
   4.100        294.17	    18.788
   4.120        286.67	    18.547
   4.140        290.83	    18.682
   4.160        283.33	    18.439
   4.180        282.50	    18.412
   4.200        276.67	    18.221
   4.220        281.67	    18.385
   4.240        263.33	    17.776
   4.260        306.67	    19.183
   4.280        253.33	    17.436
   4.300        260.00	    17.664
   4.320        293.33	    18.762
   4.340        260.83	    17.692
   4.360        280.00	    18.330
   4.380        248.33	    17.263
   4.400        240.83	    17.000
   4.420        242.50	    17.059
   4.440        263.33	    17.776
   4.460        241.67	    17.029
   4.480        269.17	    17.972
   4.500        230.83	    16.643
   4.520        261.67	    17.720
   4.540        257.50	    17.578
   4.560        262.50	    17.748
   4.580        248.33	    17.263
   4.600        243.33	    17.088
   4.620        260.83	    17.692
   4.640        255.00	    17.493
   4.660        222.50	    16.340
   4.680        248.33	    17.263
   4.700        230.00	    16.613
   4.720        254.17	    17.464
   4.740        250.00	    17.321
   4.760        241.67	    17.029
   4.780        246.67	    17.205
   4.800        250.00	    17.321
   4.820        230.83	    16.643
   4.840        239.17	    16.941
   4.860        218.33	    16.186
   4.880        222.50	    16.340
   4.900        253.33	    17.436
   4.920        225.00	    16.432
   4.940        225.83	    16.462
   4.960        230.00	    16.613
   4.980        225.83	    16.462
   5.000        231.67	    16.673
   5.020        219.17	    16.217
   5.040        251.67	    17.378
   5.060        195.83	    15.330
   5.080        200.83	    15.524
   5.100        229.17	    16.583
   5.120        218.33	    16.186
   5.140        213.33	    16.000
   5.160        207.50	    15.780
   5.180        199.17	    15.460
   5.200        235.00	    16.793
   5.220        200.00	    15.492
   5.240        216.67	    16.125
   5.260        224.17	    16.401
   5.280        209.17	    15.843
   5.300        217.50	    16.155
   5.320        216.67	    16.125
   5.340        223.33	    16.371
   5.360        200.00	    15.492
   5.380        207.50	    15.780
   5.400        203.33	    15.620
   5.420        196.67	    15.362
   5.440        225.00	    16.432
   5.460        217.50	    16.155
   5.480        202.50	    15.588
   5.500        187.50	    15.000
   5.520        200.00	    15.492
   5.540        199.17	    15.460
   5.560        206.67	    15.748
   5.580        179.17	    14.663
   5.600        202.50	    15.588
   5.620        194.17	    15.264
   5.640        204.17	    15.652
   5.660        210.00	    15.875
   5.680        188.33	    15.033
   5.700        212.50	    15.969
   5.720        208.33	    15.811
   5.740        219.17	    16.217
   5.760        182.50	    14.799
   5.780        224.17	    16.401
   5.800        210.83	    15.906
   5.820        192.50	    15.199
   5.840        216.67	    16.125
   5.860        204.17	    15.652
   5.880        205.83	    15.716
   5.900        209.17	    15.843
   5.920        185.83	    14.933
   5.940        190.83	    15.133
   5.960        195.83	    15.330
   5.980        220.83	    16.279
   6.000        220.00	    16.248
   6.020        242.50	    17.059
   6.040        205.83	    15.716
   6.060        213.33	    16.000
   6.080        230.00	    16.613
   6.100        230.83	    16.643
   6.120        227.50	    16.523
   6.140        237.50	    16.882
   6.160        231.67	    16.673
   6.180        265.00	    17.833
   6.200        259.17	    17.635
   6.220        309.17	    19.261
   6.240        273.33	    18.111
   6.260        261.67	    17.720
   6.280        224.17	    16.401
   6.300        218.33	    16.186
   6.320        186.67	    14.967
   6.340        194.17	    15.264
   6.360        185.83	    14.933
   6.380        202.50	    15.588
   6.400        174.17	    14.457
   6.420        190.83	    15.133
   6.440        165.83	    14.107
   6.460        177.50	    14.595
   6.480        200.00	    15.492
   6.500        191.67	    15.166
   6.520        180.00	    14.697
   6.540        180.83	    14.731
   6.560        175.00	    14.491
   6.580        165.83	    14.107
   6.600        166.67	    14.142
   6.620        171.67	    14.353
   6.640        177.50	    14.595
   6.660        176.67	    14.560
   6.680        165.00	    14.071
   6.700        179.17	    14.663
   6.720        156.67	    13.711
   6.740        172.50	    14.387
   6.760        160.83	    13.892
   6.780        160.83	    13.892
   6.800        168.33	    14.213
   6.820        169.17	    14.248
   6.840        136.67	    12.806
   6.860        164.17	    14.036
   6.880        175.00	    14.491
   6.900        188.33	    15.033
   6.920        169.17	    14.248
   6.940        173.33	    14.422
   6.960        144.17	    13.153
   6.980        154.17	    13.601
   7.000        154.17	    13.601
   7.020        164.17	    14.036
   7.040        167.50	    14.177
   7.060        170.83	    14.318
   7.080        153.33	    13.565
   7.100        141.67	    13.038
   7.120        155.83	    13.675
   7.140        160.83	    13.892
   7.160        146.67	    13.266
   7.180        164.17	    14.036
   7.200        126.67	    12.329
   7.220        149.17	    13.379
   7.240        161.67	    13.928
   7.260        153.33	    13.565
   7.280        141.67	    13.038
   7.300        134.17	    12.689
   7.320        150.83	    13.454
   7.340        139.17	    12.923
   7.360        162.50	    13.964
   7.380        143.33	    13.115
   7.400        146.67	    13.266
   7.420        149.17	    13.379
   7.440        141.67	    13.038
   7.460        135.00	    12.728
   7.480        130.00	    12.490
   7.500        130.83	    12.530
   7.520        148.33	    13.342
   7.540        140.00	    12.961
   7.560        150.83	    13.454
   7.580        125.83	    12.288
   7.600        121.67	    12.083
   7.620        141.67	    13.038
   7.640        151.67	    13.491
   7.660        139.17	    12.923
   7.680        159.17	    13.820
   7.700        125.00	    12.247
   7.720        137.50	    12.845
   7.740        148.33	    13.342
   7.760        132.50	    12.610
   7.780        130.83	    12.530
   7.800        132.50	    12.610
   7.820        118.33	    11.916
   7.840        131.67	    12.570
   7.860        141.67	    13.038
   7.880        115.00	    11.747
   7.900        138.33	    12.884
   7.920        134.17	    12.689
   7.940        133.33	    12.649
   7.960        130.83	    12.530
   7.980        130.00	    12.490
   8.000        139.17	    12.923
   8.020        132.50	    12.610
   8.040        155.83	    13.675
   8.060        117.50	    11.874
   8.080        132.50	    12.610
   8.100        124.17	    12.207
   8.120        144.17	    13.153
   8.140        134.17	    12.689
   8.160        130.00	    12.490
   8.180        124.17	    12.207
   8.200        122.50	    12.124
   8.220        140.00	    12.961
   8.240        141.67	    13.038
   8.260        106.67	    11.314
   8.280        145.00	    13.191
   8.300        142.50	    13.077
   8.320        136.67	    12.806
   8.340        155.00	    13.638
   8.360        130.83	    12.530
   8.380        150.83	    13.454
   8.400        127.50	    12.369
   8.420        150.83	    13.454
   8.440        143.33	    13.115
   8.460        129.17	    12.450
   8.480        175.83	    14.526
   8.500        156.67	    13.711
   8.520        144.17	    13.153
   8.540        165.00	    14.071
   8.560        138.33	    12.884
   8.580        158.33	    13.784
   8.600        170.83	    14.318
   8.620        165.00	    14.071
   8.640        172.50	    14.387
   8.660        182.50	    14.799
   8.680        194.17	    15.264
   8.700        220.00	    16.248
   8.720        231.67	    16.673
   8.740        241.67	    17.029
   8.760        290.00	    18.655
   8.780        267.50	    17.916
   8.800        305.00	    19.131
   8.820        360.83	    20.809
   8.840        474.17	    23.854
   8.860        666.67	    28.284
   8.880        749.17	    29.983
   8.900        665.00	    28.249
   8.920        581.67	    26.420
   8.940        408.33	    22.136
   8.960        245.00	    17.146
   8.980        175.83	    14.526
   9.000        146.67	    13.266
   9.020        140.83	    13.000
   9.040        132.50	    12.610
   9.060        135.83	    12.767
   9.080        144.17	    13.153
   9.100        120.83	    12.042
   9.120        127.50	    12.369
   9.140        124.17	    12.207
   9.160        145.00	    13.191
   9.180        140.00	    12.961
   9.200        125.83	    12.288
   9.220        130.83	    12.530
   9.240        135.00	    12.728
   9.260        119.17	    11.958
   9.280        113.33	    11.662
   9.300        119.17	    11.958
   9.320        104.17	    11.180
   9.340        113.33	    11.662
   9.360        123.33	    12.166
   9.380        120.00	    12.000
   9.400        119.17	    11.958
   9.420        128.33	    12.410
   9.440        136.67	    12.806
   9.460        128.33	    12.410
   9.480        120.00	    12.000
   9.500        136.67	    12.806
   9.520        104.17	    11.180
   9.540        124.17	    12.207
   9.560         96.67	    10.770
   9.580        104.17	    11.180
   9.600        102.50	    11.091
   9.620        100.00	    10.954
   9.640        116.67	    11.832
   9.660        113.33	    11.662
   9.680         94.17	    10.630
   9.700         82.50	     9.950
   9.720        101.67	    11.045
   9.740        105.00	    11.225
   9.760         94.17	    10.630
   9.780        108.33	    11.402
   9.800         99.17	    10.909
   9.820         89.17	    10.344
   9.840        100.00	    10.954
   9.860         98.33	    10.863
   9.880        100.00	    10.954
   9.900         90.83	    10.440
   9.920         97.50	    10.817
   9.940         68.33	     9.055
   9.960        105.00	    11.225
   9.980        109.17	    11.446
  10.000         96.67	    10.770
  10.020         90.83	    10.440
  10.040         97.50	    10.817
  10.060         97.50	    10.817
  10.080        103.33	    11.136
  10.100         85.00	    10.100
  10.120        101.67	    11.045
  10.140        110.00	    11.489
  10.160         97.50	    10.817
  10.180         84.17	    10.050
  10.200         84.17	    10.050
  10.220         96.67	    10.770
  10.240         86.67	    10.198
  10.260         84.17	    10.050
  10.280         95.83	    10.724
  10.300         86.67	    10.198
  10.320         95.83	    10.724
  10.340         99.17	    10.909
  10.360         97.50	    10.817
  10.380         97.50	    10.817
  10.400        112.50	    11.619
  10.420        115.00	    11.747
  10.440         95.83	    10.724
  10.460         87.50	    10.247
  10.480         99.17	    10.909
  10.500        127.50	    12.369
  10.520        118.33	    11.916
  10.540        111.67	    11.576
  10.560        119.17	    11.958
  10.580        120.83	    12.042
  10.600        106.67	    11.314
  10.620        103.33	    11.136
  10.640        108.33	    11.402
  10.660         73.33	     9.381
  10.680         88.33	    10.296
  10.700         83.33	    10.000
  10.720         78.33	     9.695
  10.740         90.83	    10.440
  10.760         81.67	     9.899
  10.780        101.67	    11.045
  10.800         77.50	     9.644
  10.820         79.17	     9.747
  10.840         95.00	    10.677
  10.860         98.33	    10.863
  10.880         97.50	    10.817
  10.900         80.00	     9.798
  10.920        107.50	    11.358
  10.940         89.17	    10.344
  10.960         95.00	    10.677
  10.980         81.67	     9.899
  11.000         91.67	    10.488
  11.020         92.50	    10.536
  11.040         91.67	    10.488
  11.060         91.67	    10.488
  11.080         82.50	     9.950
  11.100         89.17	    10.344
  11.120         85.00	    10.100
  11.140         80.00	     9.798
  11.160         95.00	    10.677
  11.180         99.17	    10.909
  11.200         83.33	    10.000
  11.220         74.17	     9.434
  11.240         81.67	     9.899
  11.260         81.67	     9.899
  11.280         83.33	    10.000
  11.300         82.50	     9.950
  11.320         92.50	    10.536
  11.340         95.83	    10.724
  11.360         74.17	     9.434
  11.380         87.50	    10.247
  11.400         76.67	     9.592
  11.420         77.50	     9.644
  11.440         85.83	    10.149
  11.460         74.17	     9.434
  11.480         80.00	     9.798
  11.500         95.00	    10.677
  11.520         86.67	    10.198
  11.540         78.33	     9.695
  11.560         89.17	    10.344
  11.580         82.50	     9.950
  11.600         90.00	    10.392
  11.620         70.83	     9.220
  11.640         85.00	    10.100
  11.660         92.50	    10.536
  11.680        100.83	    11.000
  11.700         77.50	     9.644
  11.720         75.83	     9.539
  11.740         81.67	     9.899
  11.760         79.17	     9.747
  11.780         91.67	    10.488
  11.800         75.00	     9.487
  11.820         73.33	     9.381
  11.840         81.67	     9.899
  11.860         86.67	    10.198
  11.880         99.17	    10.909
  11.900         89.17	    10.344
  11.920         89.17	    10.344
  11.940         85.83	    10.149
  11.960         81.67	     9.899
  11.980         81.67	     9.899
  12.000        108.33	    11.402
  12.020        101.67	    11.045
  12.040         97.50	    10.817
  12.060        126.67	    12.329
  12.080        155.83	    13.675
  12.100        156.67	    13.711
  12.120        164.17	    14.036
  12.140        215.83	    16.093
  12.160        221.67	    16.310
  12.180        342.50	    20.273
  12.200        439.17	    22.956
  12.220        486.67	    24.166
  12.240        386.67	    21.541
  12.260        276.67	    18.221
  12.280        178.33	    14.629
  12.300        162.50	    13.964
  12.320        174.17	    14.457
  12.340        175.83	    14.526
  12.360        171.67	    14.353
  12.380        202.50	    15.588
  12.400        218.33	    16.186
  12.420        222.50	    16.340
  12.440        222.50	    16.340
  12.460        290.00	    18.655
  12.480        332.50	    19.975
  12.500        336.67	    20.100
  12.520        325.00	    19.748
  12.540        256.67	    17.550
  12.560        210.00	    15.875
  12.580        157.50	    13.748
  12.600        100.00	    10.954
  12.620         95.83	    10.724
  12.640        100.83	    11.000
  12.660         77.50	     9.644
  12.680         91.67	    10.488
  12.700         67.50	     9.000
  12.720         83.33	    10.000
  12.740         94.17	    10.630
  12.760         87.50	    10.247
  12.780         81.67	     9.899
  12.800         81.67	     9.899
  12.820         80.83	     9.849
  12.840         73.33	     9.381
  12.860         70.00	     9.165
  12.880         66.67	     8.944
  12.900         62.50	     8.660
  12.920         77.50	     9.644
  12.940         73.33	     9.381
  12.960         65.83	     8.888
  12.980         87.50	    10.247
  13.000         72.50	     9.327
  13.020         76.67	     9.592
  13.040         84.17	    10.050
  13.060         83.33	    10.000
  13.080         83.33	    10.000
  13.100         70.00	     9.165
  13.120         76.67	     9.592
  13.140         70.00	     9.165
  13.160         70.00	     9.165
  13.180         74.17	     9.434
  13.200         72.50	     9.327
  13.220         69.17	     9.110
  13.240         60.83	     8.544
  13.260         72.50	     9.327
  13.280         69.17	     9.110
  13.300         82.50	     9.950
  13.320         70.00	     9.165
  13.340         62.50	     8.660
  13.360         73.33	     9.381
  13.380         70.83	     9.220
  13.400         70.00	     9.165
  13.420         63.33	     8.718
  13.440         73.33	     9.381
  13.460         66.67	     8.944
  13.480         75.00	     9.487
  13.500         70.00	     9.165
  13.520         66.67	     8.944
  13.540         66.67	     8.944
  13.560         67.50	     9.000
  13.580         73.33	     9.381
  13.600         75.83	     9.539
  13.620         84.17	    10.050
  13.640         71.67	     9.274
  13.660         75.83	     9.539
  13.680         83.33	    10.000
  13.700         66.67	     8.944
  13.720         61.67	     8.602
  13.740         67.50	     9.000
  13.760         82.50	     9.950
  13.780         88.33	    10.296
  13.800         89.17	    10.344
  13.820         85.00	    10.100
  13.840         88.33	    10.296
  13.860         93.33	    10.583
  13.880         92.50	    10.536
  13.900         78.33	     9.695
  13.920         93.33	    10.583
  13.940         64.17	     8.775
  13.960         70.83	     9.220
  13.980         75.83	     9.539
  14.000         68.33	     9.055
  14.020         67.50	     9.000
  14.040         65.83	     8.888
  14.060         65.00	     8.832
  14.080         65.83	     8.888
  14.100         66.67	     8.944
  14.120         52.50	     7.937
  14.140         63.33	     8.718
  14.160         65.00	     8.832
  14.180         60.00	     8.485
  14.200         62.50	     8.660
  14.220         47.50	     7.550
  14.240         63.33	     8.718
  14.260         62.50	     8.660
  14.280         85.00	    10.100
  14.300         65.83	     8.888
  14.320         55.83	     8.185
  14.340         55.83	     8.185
  14.360         66.67	     8.944
  14.380         50.00	     7.746
  14.400         60.83	     8.544
