
Filename:
	C:\Program Files\Thermo Electron\WinXRD\Datafiles\F_HERMAN\FIEN\G21_FT.raw

File Created:
	October 04, 2019 - 03:33 PM

Specimen Id:
	G21 FT RT

Specimen Name:
	

Specimen Description:
	

Comment:
Scan Type: 2Theta Scan
Start Angle: 2 deg.
Stop Angle: 65 deg.
Num Points: 3151
Step Size: 0.02 deg.
Scan Rate: 1.000000
Scan Mode: Continuous
Wavelength: 1.540562
\Kalpha1: 1.540562	\Kalpha2: 1.544390	\Kbeta: 1.392218

Optics:
		Detector:
			 Type: Fixed Slits
		Tube: 
			 Type: Fixed Slits


Datas:
 Pos [deg]       Rate [CPS]      ESD [-]

Range 1 ---> Iteration 1
   2.000        855.83	    32.047
   2.020        887.50	    32.634
   2.040        870.83	    32.326
   2.060        814.17	    31.257
   2.080        845.83	    31.859
   2.100        863.33	    32.187
   2.120        810.83	    31.193
   2.140        791.67	    30.822
   2.160        760.00	    30.199
   2.180        745.83	    29.917
   2.200        747.50	    29.950
   2.220        770.00	    30.397
   2.240        758.33	    30.166
   2.260        748.33	    29.967
   2.280        710.00	    29.189
   2.300        703.33	    29.052
   2.320        727.50	    29.547
   2.340        684.17	    28.653
   2.360        702.50	    29.034
   2.380        685.00	    28.671
   2.400        661.67	    28.178
   2.420        660.00	    28.142
   2.440        668.33	    28.320
   2.460        651.67	    27.964
   2.480        640.00	    27.713
   2.500        673.33	    28.425
   2.520        660.83	    28.160
   2.540        585.00	    26.495
   2.560        638.33	    27.677
   2.580        611.67	    27.092
   2.600        624.17	    27.368
   2.620        584.17	    26.476
   2.640        579.17	    26.363
   2.660        584.17	    26.476
   2.680        582.50	    26.439
   2.700        610.00	    27.055
   2.720        615.00	    27.166
   2.740        567.50	    26.096
   2.760        541.67	    25.495
   2.780        579.17	    26.363
   2.800        553.33	    25.768
   2.820        538.33	    25.417
   2.840        545.83	    25.593
   2.860        511.67	    24.779
   2.880        522.50	    25.040
   2.900        526.67	    25.140
   2.920        522.50	    25.040
   2.940        508.33	    24.698
   2.960        525.83	    25.120
   2.980        504.17	    24.597
   3.000        522.50	    25.040
   3.020        515.00	    24.860
   3.040        480.83	    24.021
   3.060        499.17	    24.474
   3.080        504.17	    24.597
   3.100        498.33	    24.454
   3.120        477.50	    23.937
   3.140        505.00	    24.617
   3.160        485.83	    24.145
   3.180        500.83	    24.515
   3.200        470.83	    23.770
   3.220        455.83	    23.388
   3.240        426.67	    22.627
   3.260        475.00	    23.875
   3.280        549.17	    25.671
   3.300        453.33	    23.324
   3.320        435.83	    22.869
   3.340        440.00	    22.978
   3.360        447.50	    23.173
   3.380        437.50	    22.913
   3.400        410.00	    22.181
   3.420        421.67	    22.494
   3.440        393.33	    21.726
   3.460        436.67	    22.891
   3.480        427.50	    22.650
   3.500        413.33	    22.271
   3.520        445.83	    23.130
   3.540        415.00	    22.316
   3.560        415.83	    22.338
   3.580        435.00	    22.847
   3.600        412.50	    22.249
   3.620        377.50	    21.284
   3.640        406.67	    22.091
   3.660        394.17	    21.749
   3.680        387.50	    21.564
   3.700        379.17	    21.331
   3.720        380.00	    21.354
   3.740        360.00	    20.785
   3.760        377.50	    21.284
   3.780        418.33	    22.405
   3.800        367.50	    21.000
   3.820        366.67	    20.976
   3.840        381.67	    21.401
   3.860        349.17	    20.469
   3.880        355.83	    20.664
   3.900        370.00	    21.071
   3.920        357.50	    20.712
   3.940        368.33	    21.024
   3.960        345.83	    20.372
   3.980        356.67	    20.688
   4.000        355.83	    20.664
   4.020        348.33	    20.445
   4.040        352.50	    20.567
   4.060        322.50	    19.672
   4.080        358.33	    20.736
   4.100        350.00	    20.494
   4.120        330.83	    19.925
   4.140        351.67	    20.543
   4.160        333.33	    20.000
   4.180        345.00	    20.347
   4.200        330.83	    19.925
   4.220        326.67	    19.799
   4.240        301.67	    19.026
   4.260        355.00	    20.640
   4.280        308.33	    19.235
   4.300        315.83	    19.468
   4.320        324.17	    19.723
   4.340        365.00	    20.928
   4.360        316.67	    19.494
   4.380        319.17	    19.570
   4.400        295.00	    18.815
   4.420        336.67	    20.100
   4.440        332.50	    19.975
   4.460        319.17	    19.570
   4.480        307.50	    19.209
   4.500        298.33	    18.921
   4.520        288.33	    18.601
   4.540        305.83	    19.157
   4.560        328.33	    19.849
   4.580        326.67	    19.799
   4.600        297.50	    18.894
   4.620        314.17	    19.416
   4.640        338.33	    20.149
   4.660        297.50	    18.894
   4.680        293.33	    18.762
   4.700        295.00	    18.815
   4.720        297.50	    18.894
   4.740        269.17	    17.972
   4.760        271.67	    18.055
   4.780        295.83	    18.841
   4.800        268.33	    17.944
   4.820        245.00	    17.146
   4.840        275.83	    18.193
   4.860        281.67	    18.385
   4.880        276.67	    18.221
   4.900        275.83	    18.193
   4.920        275.00	    18.166
   4.940        281.67	    18.385
   4.960        272.50	    18.083
   4.980        249.17	    17.292
   5.000        281.67	    18.385
   5.020        271.67	    18.055
   5.040        266.67	    17.889
   5.060        277.50	    18.248
   5.080        257.50	    17.578
   5.100        284.17	    18.466
   5.120        295.83	    18.841
   5.140        265.83	    17.861
   5.160        265.00	    17.833
   5.180        241.67	    17.029
   5.200        275.83	    18.193
   5.220        243.33	    17.088
   5.240        266.67	    17.889
   5.260        250.00	    17.321
   5.280        273.33	    18.111
   5.300        274.17	    18.138
   5.320        244.17	    17.117
   5.340        245.00	    17.146
   5.360        275.00	    18.166
   5.380        253.33	    17.436
   5.400        249.17	    17.292
   5.420        270.00	    18.000
   5.440        242.50	    17.059
   5.460        287.50	    18.574
   5.480        230.83	    16.643
   5.500        285.83	    18.520
   5.520        280.00	    18.330
   5.540        278.33	    18.276
   5.560        285.83	    18.520
   5.580        260.00	    17.664
   5.600        278.33	    18.276
   5.620        280.00	    18.330
   5.640        305.00	    19.131
   5.660        257.50	    17.578
   5.680        305.00	    19.131
   5.700        308.33	    19.235
   5.720        325.00	    19.748
   5.740        336.67	    20.100
   5.760        335.00	    20.050
   5.780        379.17	    21.331
   5.800        368.33	    21.024
   5.820        430.83	    22.738
   5.840        453.33	    23.324
   5.860        500.00	    24.495
   5.880        600.00	    26.833
   5.900        581.67	    26.420
   5.920        480.00	    24.000
   5.940        475.00	    23.875
   5.960        415.83	    22.338
   5.980        388.33	    21.587
   6.000        386.67	    21.541
   6.020        411.67	    22.226
   6.040        436.67	    22.891
   6.060        461.67	    23.537
   6.080        485.83	    24.145
   6.100        505.83	    24.637
   6.120        519.17	    24.960
   6.140        566.67	    26.077
   6.160        582.50	    26.439
   6.180        470.83	    23.770
   6.200        386.67	    21.541
   6.220        324.17	    19.723
   6.240        271.67	    18.055
   6.260        279.17	    18.303
   6.280        277.50	    18.248
   6.300        261.67	    17.720
   6.320        251.67	    17.378
   6.340        264.17	    17.804
   6.360        230.00	    16.613
   6.380        260.00	    17.664
   6.400        255.83	    17.521
   6.420        232.50	    16.703
   6.440        238.33	    16.912
   6.460        236.67	    16.852
   6.480        240.00	    16.971
   6.500        240.00	    16.971
   6.520        214.17	    16.031
   6.540        234.17	    16.763
   6.560        240.00	    16.971
   6.580        230.83	    16.643
   6.600        218.33	    16.186
   6.620        221.67	    16.310
   6.640        230.83	    16.643
   6.660        233.33	    16.733
   6.680        237.50	    16.882
   6.700        242.50	    17.059
   6.720        232.50	    16.703
   6.740        221.67	    16.310
   6.760        234.17	    16.763
   6.780        225.00	    16.432
   6.800        214.17	    16.031
   6.820        220.00	    16.248
   6.840        205.83	    15.716
   6.860        215.83	    16.093
   6.880        229.17	    16.583
   6.900        205.00	    15.684
   6.920        200.83	    15.524
   6.940        217.50	    16.155
   6.960        226.67	    16.492
   6.980        218.33	    16.186
   7.000        170.83	    14.318
   7.020        193.33	    15.232
   7.040        202.50	    15.588
   7.060        170.83	    14.318
   7.080        208.33	    15.811
   7.100        201.67	    15.556
   7.120        190.83	    15.133
   7.140        188.33	    15.033
   7.160        215.83	    16.093
   7.180        180.00	    14.697
   7.200        190.83	    15.133
   7.220        205.00	    15.684
   7.240        175.83	    14.526
   7.260        184.17	    14.866
   7.280        180.00	    14.697
   7.300        175.83	    14.526
   7.320        210.00	    15.875
   7.340        205.00	    15.684
   7.360        175.83	    14.526
   7.380        187.50	    15.000
   7.400        175.00	    14.491
   7.420        179.17	    14.663
   7.440        178.33	    14.629
   7.460        175.83	    14.526
   7.480        195.83	    15.330
   7.500        200.83	    15.524
   7.520        190.83	    15.133
   7.540        163.33	    14.000
   7.560        182.50	    14.799
   7.580        161.67	    13.928
   7.600        185.83	    14.933
   7.620        180.00	    14.697
   7.640        176.67	    14.560
   7.660        150.00	    13.416
   7.680        160.00	    13.856
   7.700        201.67	    15.556
   7.720        168.33	    14.213
   7.740        165.00	    14.071
   7.760        170.00	    14.283
   7.780        180.83	    14.731
   7.800        196.67	    15.362
   7.820        167.50	    14.177
   7.840        173.33	    14.422
   7.860        177.50	    14.595
   7.880        157.50	    13.748
   7.900        169.17	    14.248
   7.920        182.50	    14.799
   7.940        170.00	    14.283
   7.960        175.00	    14.491
   7.980        166.67	    14.142
   8.000        170.83	    14.318
   8.020        169.17	    14.248
   8.040        161.67	    13.928
   8.060        184.17	    14.866
   8.080        170.00	    14.283
   8.100        173.33	    14.422
   8.120        172.50	    14.387
   8.140        179.17	    14.663
   8.160        196.67	    15.362
   8.180        171.67	    14.353
   8.200        185.83	    14.933
   8.220        190.00	    15.100
   8.240        184.17	    14.866
   8.260        195.83	    15.330
   8.280        190.83	    15.133
   8.300        189.17	    15.067
   8.320        170.00	    14.283
   8.340        194.17	    15.264
   8.360        217.50	    16.155
   8.380        199.17	    15.460
   8.400        194.17	    15.264
   8.420        215.83	    16.093
   8.440        220.00	    16.248
   8.460        229.17	    16.583
   8.480        232.50	    16.703
   8.500        232.50	    16.703
   8.520        263.33	    17.776
   8.540        266.67	    17.889
   8.560        261.67	    17.720
   8.580        320.83	    19.621
   8.600        327.50	    19.824
   8.620        417.50	    22.383
   8.640        435.00	    22.847
   8.660        491.67	    24.290
   8.680        549.17	    25.671
   8.700        621.67	    27.313
   8.720        817.50	    31.321
   8.740       1178.33	    37.603
   8.760       1776.67	    46.174
   8.780       2222.50	    51.643
   8.800       2489.17	    54.653
   8.820       2146.67	    50.754
   8.840       1310.83	    39.661
   8.860        693.33	    28.844
   8.880        391.67	    21.679
   8.900        269.17	    17.972
   8.920        263.33	    17.776
   8.940        239.17	    16.941
   8.960        234.17	    16.763
   8.980        206.67	    15.748
   9.000        214.17	    16.031
   9.020        206.67	    15.748
   9.040        246.67	    17.205
   9.060        271.67	    18.055
   9.080        345.83	    20.372
   9.100        336.67	    20.100
   9.120        309.17	    19.261
   9.140        269.17	    17.972
   9.160        226.67	    16.492
   9.180        189.17	    15.067
   9.200        167.50	    14.177
   9.220        166.67	    14.142
   9.240        170.83	    14.318
   9.260        175.00	    14.491
   9.280        167.50	    14.177
   9.300        166.67	    14.142
   9.320        164.17	    14.036
   9.340        209.17	    15.843
   9.360        214.17	    16.031
   9.380        210.83	    15.906
   9.400        181.67	    14.765
   9.420        131.67	    12.570
   9.440        146.67	    13.266
   9.460        150.00	    13.416
   9.480        151.67	    13.491
   9.500        142.50	    13.077
   9.520        180.00	    14.697
   9.540        167.50	    14.177
   9.560        151.67	    13.491
   9.580        145.00	    13.191
   9.600        155.00	    13.638
   9.620        149.17	    13.379
   9.640        146.67	    13.266
   9.660        140.83	    13.000
   9.680        155.83	    13.675
   9.700        149.17	    13.379
   9.720        127.50	    12.369
   9.740        141.67	    13.038
   9.760        144.17	    13.153
   9.780        119.17	    11.958
   9.800        119.17	    11.958
   9.820        125.00	    12.247
   9.840        135.00	    12.728
   9.860        134.17	    12.689
   9.880        148.33	    13.342
   9.900        126.67	    12.329
   9.920        123.33	    12.166
   9.940        120.83	    12.042
   9.960        115.00	    11.747
   9.980        140.00	    12.961
  10.000        128.33	    12.410
  10.020        120.00	    12.000
  10.040        117.50	    11.874
  10.060        115.83	    11.790
  10.080        119.17	    11.958
  10.100        110.83	    11.533
  10.120        130.83	    12.530
  10.140        130.00	    12.490
  10.160        118.33	    11.916
  10.180        148.33	    13.342
  10.200        110.83	    11.533
  10.220        127.50	    12.369
  10.240        107.50	    11.358
  10.260        126.67	    12.329
  10.280        124.17	    12.207
  10.300        124.17	    12.207
  10.320        135.83	    12.767
  10.340        172.50	    14.387
  10.360        198.33	    15.427
  10.380        218.33	    16.186
  10.400        217.50	    16.155
  10.420        231.67	    16.673
  10.440        235.00	    16.793
  10.460        237.50	    16.882
  10.480        197.50	    15.395
  10.500        167.50	    14.177
  10.520        124.17	    12.207
  10.540        130.00	    12.490
  10.560        114.17	    11.705
  10.580        135.00	    12.728
  10.600        110.00	    11.489
  10.620        102.50	    11.091
  10.640        130.00	    12.490
  10.660        126.67	    12.329
  10.680        109.17	    11.446
  10.700        105.00	    11.225
  10.720        109.17	    11.446
  10.740        119.17	    11.958
  10.760        105.83	    11.269
  10.780        115.00	    11.747
  10.800        130.83	    12.530
  10.820        130.00	    12.490
  10.840        100.00	    10.954
  10.860        103.33	    11.136
  10.880        125.00	    12.247
  10.900        104.17	    11.180
  10.920        101.67	    11.045
  10.940        117.50	    11.874
  10.960         85.00	    10.100
  10.980        100.83	    11.000
  11.000        110.00	    11.489
  11.020        109.17	    11.446
  11.040        117.50	    11.874
  11.060        109.17	    11.446
  11.080        100.00	    10.954
  11.100        112.50	    11.619
  11.120        110.00	    11.489
  11.140        129.17	    12.450
  11.160        120.00	    12.000
  11.180        132.50	    12.610
  11.200        124.17	    12.207
  11.220         90.83	    10.440
  11.240        120.00	    12.000
  11.260        114.17	    11.705
  11.280        117.50	    11.874
  11.300        105.83	    11.269
  11.320        101.67	    11.045
  11.340        110.00	    11.489
  11.360         97.50	    10.817
  11.380        104.17	    11.180
  11.400        118.33	    11.916
  11.420        105.00	    11.225
  11.440        105.00	    11.225
  11.460        100.83	    11.000
  11.480        110.83	    11.533
  11.500        113.33	    11.662
  11.520        114.17	    11.705
  11.540        104.17	    11.180
  11.560        106.67	    11.314
  11.580        111.67	    11.576
  11.600        103.33	    11.136
  11.620        113.33	    11.662
  11.640        105.00	    11.225
  11.660        100.00	    10.954
  11.680        113.33	    11.662
  11.700        121.67	    12.083
  11.720         98.33	    10.863
  11.740        116.67	    11.832
  11.760        118.33	    11.916
  11.780        128.33	    12.410
  11.800        131.67	    12.570
  11.820        135.00	    12.728
  11.840        139.17	    12.923
  11.860        137.50	    12.845
  11.880        157.50	    13.748
  11.900        142.50	    13.077
  11.920        125.83	    12.288
  11.940        145.00	    13.191
  11.960        177.50	    14.595
  11.980        169.17	    14.248
  12.000        204.17	    15.652
  12.020        295.83	    18.841
  12.040        364.17	    20.905
  12.060        473.33	    23.833
  12.080        623.33	    27.350
  12.100        756.67	    30.133
  12.120        646.67	    27.857
  12.140        530.00	    25.219
  12.160        386.67	    21.541
  12.180        280.00	    18.330
  12.200        251.67	    17.378
  12.220        265.00	    17.833
  12.240        307.50	    19.209
  12.260        335.83	    20.075
  12.280        332.50	    19.975
  12.300        345.83	    20.372
  12.320        371.67	    21.119
  12.340        423.33	    22.539
  12.360        558.33	    25.884
  12.380        720.83	    29.411
  12.400        903.33	    32.924
  12.420        984.17	    34.366
  12.440        825.00	    31.464
  12.460        547.50	    25.632
  12.480        362.50	    20.857
  12.500        214.17	    16.031
  12.520        155.83	    13.675
  12.540        147.50	    13.304
  12.560        125.00	    12.247
  12.580        116.67	    11.832
  12.600        117.50	    11.874
  12.620        105.83	    11.269
  12.640        111.67	    11.576
  12.660        117.50	    11.874
  12.680        101.67	    11.045
  12.700        105.83	    11.269
  12.720        106.67	    11.314
  12.740        107.50	    11.358
  12.760        108.33	    11.402
  12.780         87.50	    10.247
  12.800         95.00	    10.677
  12.820         92.50	    10.536
  12.840        102.50	    11.091
  12.860        104.17	    11.180
  12.880        103.33	    11.136
  12.900         93.33	    10.583
  12.920         96.67	    10.770
  12.940        104.17	    11.180
  12.960         85.83	    10.149
  12.980         98.33	    10.863
  13.000         90.00	    10.392
  13.020         91.67	    10.488
  13.040         82.50	     9.950
  13.060         97.50	    10.817
  13.080         91.67	    10.488
  13.100         88.33	    10.296
  13.120        100.83	    11.000
  13.140        110.00	    11.489
  13.160        101.67	    11.045
  13.180        104.17	    11.180
  13.200         99.17	    10.909
  13.220         88.33	    10.296
  13.240         90.83	    10.440
  13.260         88.33	    10.296
  13.280        110.00	    11.489
  13.300         92.50	    10.536
  13.320         80.00	     9.798
  13.340         80.00	     9.798
  13.360         90.00	    10.392
  13.380        105.00	    11.225
  13.400         99.17	    10.909
