
Filename:
	C:\Program Files\Thermo Electron\WinXRD\Datafiles\F_HERMAN\FIEN\G24_FT.raw

File Created:
	October 04, 2019 - 02:29 PM

Specimen Id:
	G24 FT RT

Specimen Name:
	

Specimen Description:
	

Comment:
Scan Type: 2Theta Scan
Start Angle: 2 deg.
Stop Angle: 65 deg.
Num Points: 3151
Step Size: 0.02 deg.
Scan Rate: 1.000000
Scan Mode: Continuous
Wavelength: 1.540562
\Kalpha1: 1.540562	\Kalpha2: 1.544390	\Kbeta: 1.392218

Optics:
		Detector:
			 Type: Fixed Slits
		Tube: 
			 Type: Fixed Slits


Datas:
 Pos [deg]       Rate [CPS]      ESD [-]

Range 1 ---> Iteration 1
   2.000        880.00	    32.496
   2.020        970.83	    34.132
   2.040        947.50	    33.719
   2.060        866.67	    32.249
   2.080        878.33	    32.465
   2.100        900.00	    32.863
   2.120        921.67	    33.257
   2.140        861.67	    32.156
   2.160        824.17	    31.448
   2.180        842.50	    31.796
   2.200        835.00	    31.654
   2.220        770.83	    30.414
   2.240        836.67	    31.686
   2.260        830.00	    31.559
   2.280        768.33	    30.364
   2.300        808.33	    31.145
   2.320        777.50	    30.545
   2.340        765.83	    30.315
   2.360        760.00	    30.199
   2.380        765.00	    30.299
   2.400        720.00	    29.394
   2.420        744.17	    29.883
   2.440        713.33	    29.257
   2.460        725.83	    29.513
   2.480        697.50	    28.931
   2.500        684.17	    28.653
   2.520        697.50	    28.931
   2.540        668.33	    28.320
   2.560        644.17	    27.803
   2.580        706.67	    29.120
   2.600        637.50	    27.659
   2.620        623.33	    27.350
   2.640        613.33	    27.129
   2.660        607.50	    27.000
   2.680        580.00	    26.382
   2.700        624.17	    27.368
   2.720        570.83	    26.173
   2.740        603.33	    26.907
   2.760        657.50	    28.089
   2.780        612.50	    27.111
   2.800        615.00	    27.166
   2.820        607.50	    27.000
   2.840        596.67	    26.758
   2.860        600.00	    26.833
   2.880        545.83	    25.593
   2.900        568.33	    26.115
   2.920        569.17	    26.134
   2.940        595.83	    26.739
   2.960        561.67	    25.962
   2.980        563.33	    26.000
   3.000        534.17	    25.318
   3.020        539.17	    25.436
   3.040        565.00	    26.038
   3.060        537.50	    25.397
   3.080        541.67	    25.495
   3.100        568.33	    26.115
   3.120        518.33	    24.940
   3.140        550.00	    25.690
   3.160        501.67	    24.536
   3.180        497.50	    24.434
   3.200        497.50	    24.434
   3.220        539.17	    25.436
   3.240        517.50	    24.920
   3.260        485.83	    24.145
   3.280        490.00	    24.249
   3.300        510.83	    24.759
   3.320        477.50	    23.937
   3.340        464.17	    23.601
   3.360        457.50	    23.431
   3.380        507.50	    24.678
   3.400        472.50	    23.812
   3.420        445.00	    23.108
   3.440        481.67	    24.042
   3.460        481.67	    24.042
   3.480        450.83	    23.259
   3.500        423.33	    22.539
   3.520        458.33	    23.452
   3.540        435.00	    22.847
   3.560        416.67	    22.361
   3.580        433.33	    22.804
   3.600        450.00	    23.238
   3.620        396.67	    21.817
   3.640        446.67	    23.152
   3.660        420.00	    22.450
   3.680        465.83	    23.643
   3.700        420.83	    22.472
   3.720        388.33	    21.587
   3.740        413.33	    22.271
   3.760        409.17	    22.159
   3.780        375.00	    21.213
   3.800        389.17	    21.610
   3.820        446.67	    23.152
   3.840        395.00	    21.772
   3.860        386.67	    21.541
   3.880        369.17	    21.048
   3.900        423.33	    22.539
   3.920        379.17	    21.331
   3.940        386.67	    21.541
   3.960        400.00	    21.909
   3.980        420.00	    22.450
   4.000        360.83	    20.809
   4.020        385.00	    21.494
   4.040        378.33	    21.307
   4.060        345.00	    20.347
   4.080        360.83	    20.809
   4.100        370.00	    21.071
   4.120        391.67	    21.679
   4.140        380.00	    21.354
   4.160        390.00	    21.633
   4.180        341.67	    20.248
   4.200        350.00	    20.494
   4.220        380.00	    21.354
   4.240        353.33	    20.591
   4.260        390.83	    21.656
   4.280        364.17	    20.905
   4.300        357.50	    20.712
   4.320        355.83	    20.664
   4.340        345.00	    20.347
   4.360        335.00	    20.050
   4.380        345.00	    20.347
   4.400        331.67	    19.950
   4.420        329.17	    19.875
   4.440        343.33	    20.298
   4.460        343.33	    20.298
   4.480        347.50	    20.421
   4.500        333.33	    20.000
   4.520        367.50	    21.000
   4.540        327.50	    19.824
   4.560        325.00	    19.748
   4.580        333.33	    20.000
   4.600        317.50	    19.519
   4.620        301.67	    19.026
   4.640        275.00	    18.166
   4.660        311.67	    19.339
   4.680        329.17	    19.875
   4.700        307.50	    19.209
   4.720        296.67	    18.868
   4.740        310.00	    19.287
   4.760        296.67	    18.868
   4.780        300.83	    19.000
   4.800        275.83	    18.193
   4.820        278.33	    18.276
   4.840        292.50	    18.735
   4.860        294.17	    18.788
   4.880        291.67	    18.708
   4.900        278.33	    18.276
   4.920        285.00	    18.493
   4.940        296.67	    18.868
   4.960        318.33	    19.545
   4.980        305.00	    19.131
   5.000        300.00	    18.974
   5.020        308.33	    19.235
   5.040        294.17	    18.788
   5.060        262.50	    17.748
   5.080        273.33	    18.111
   5.100        295.00	    18.815
   5.120        291.67	    18.708
   5.140        263.33	    17.776
   5.160        300.83	    19.000
   5.180        278.33	    18.276
   5.200        268.33	    17.944
   5.220        255.83	    17.521
   5.240        261.67	    17.720
   5.260        285.00	    18.493
   5.280        274.17	    18.138
   5.300        311.67	    19.339
   5.320        307.50	    19.209
   5.340        293.33	    18.762
   5.360        290.83	    18.682
   5.380        307.50	    19.209
   5.400        274.17	    18.138
   5.420        323.33	    19.698
   5.440        277.50	    18.248
   5.460        276.67	    18.221
   5.480        324.17	    19.723
   5.500        305.83	    19.157
   5.520        329.17	    19.875
   5.540        343.33	    20.298
   5.560        370.83	    21.095
   5.580        365.00	    20.928
   5.600        423.33	    22.539
   5.620        425.83	    22.605
   5.640        500.83	    24.515
   5.660        512.50	    24.799
   5.680        572.50	    26.211
   5.700        672.50	    28.408
   5.720        739.17	    29.783
   5.740        855.83	    32.047
   5.760        845.00	    31.843
   5.780        890.83	    32.696
   5.800        797.50	    30.935
   5.820        724.17	    29.479
   5.840        639.17	    27.695
   5.860        578.33	    26.344
   5.880        559.17	    25.904
   5.900        601.67	    26.870
   5.920        610.00	    27.055
   5.940        645.83	    27.839
   5.960        708.33	    29.155
   5.980        776.67	    30.529
   6.000        760.83	    30.216
   6.020        691.67	    28.810
   6.040        707.50	    29.138
   6.060        651.67	    27.964
   6.080        583.33	    26.458
   6.100        429.17	    22.694
   6.120        369.17	    21.048
   6.140        317.50	    19.519
   6.160        329.17	    19.875
   6.180        272.50	    18.083
   6.200        299.17	    18.947
   6.220        309.17	    19.261
   6.240        275.83	    18.193
   6.260        286.67	    18.547
   6.280        293.33	    18.762
   6.300        236.67	    16.852
   6.320        266.67	    17.889
   6.340        238.33	    16.912
   6.360        268.33	    17.944
   6.380        275.00	    18.166
   6.400        281.67	    18.385
   6.420        266.67	    17.889
   6.440        246.67	    17.205
   6.460        250.00	    17.321
   6.480        256.67	    17.550
   6.500        262.50	    17.748
   6.520        218.33	    16.186
   6.540        265.83	    17.861
   6.560        242.50	    17.059
   6.580        230.83	    16.643
   6.600        253.33	    17.436
   6.620        218.33	    16.186
   6.640        227.50	    16.523
   6.660        233.33	    16.733
   6.680        245.83	    17.176
   6.700        249.17	    17.292
   6.720        203.33	    15.620
   6.740        228.33	    16.553
   6.760        258.33	    17.607
   6.780        226.67	    16.492
   6.800        225.83	    16.462
   6.820        224.17	    16.401
   6.840        215.83	    16.093
   6.860        227.50	    16.523
   6.880        238.33	    16.912
   6.900        245.83	    17.176
   6.920        211.67	    15.937
   6.940        211.67	    15.937
   6.960        239.17	    16.941
   6.980        220.00	    16.248
   7.000        230.83	    16.643
   7.020        215.83	    16.093
   7.040        230.00	    16.613
   7.060        213.33	    16.000
   7.080        217.50	    16.155
   7.100        240.83	    17.000
   7.120        219.17	    16.217
   7.140        233.33	    16.733
   7.160        229.17	    16.583
   7.180        225.00	    16.432
   7.200        228.33	    16.553
   7.220        199.17	    15.460
   7.240        206.67	    15.748
   7.260        195.83	    15.330
   7.280        235.00	    16.793
   7.300        230.83	    16.643
   7.320        210.83	    15.906
   7.340        209.17	    15.843
   7.360        185.00	    14.900
   7.380        187.50	    15.000
   7.400        220.00	    16.248
   7.420        215.83	    16.093
   7.440        196.67	    15.362
   7.460        204.17	    15.652
   7.480        214.17	    16.031
   7.500        201.67	    15.556
   7.520        189.17	    15.067
   7.540        204.17	    15.652
   7.560        179.17	    14.663
   7.580        194.17	    15.264
   7.600        215.00	    16.062
   7.620        204.17	    15.652
   7.640        188.33	    15.033
   7.660        230.00	    16.613
   7.680        184.17	    14.866
   7.700        190.00	    15.100
   7.720        212.50	    15.969
   7.740        226.67	    16.492
   7.760        224.17	    16.401
   7.780        195.00	    15.297
   7.800        201.67	    15.556
   7.820        185.00	    14.900
   7.840        192.50	    15.199
   7.860        181.67	    14.765
   7.880        164.17	    14.036
   7.900        218.33	    16.186
   7.920        195.83	    15.330
   7.940        180.83	    14.731
   7.960        210.83	    15.906
   7.980        176.67	    14.560
   8.000        194.17	    15.264
   8.020        175.00	    14.491
   8.040        220.83	    16.279
   8.060        186.67	    14.967
   8.080        219.17	    16.217
   8.100        185.00	    14.900
   8.120        204.17	    15.652
   8.140        225.83	    16.462
   8.160        212.50	    15.969
   8.180        219.17	    16.217
   8.200        203.33	    15.620
   8.220        216.67	    16.125
   8.240        216.67	    16.125
   8.260        249.17	    17.292
   8.280        215.83	    16.093
   8.300        261.67	    17.720
   8.320        257.50	    17.578
   8.340        260.83	    17.692
   8.360        235.00	    16.793
   8.380        260.83	    17.692
   8.400        323.33	    19.698
   8.420        307.50	    19.209
   8.440        324.17	    19.723
   8.460        323.33	    19.698
   8.480        351.67	    20.543
   8.500        394.17	    21.749
   8.520        444.17	    23.087
   8.540        483.33	    24.083
   8.560        605.83	    26.963
   8.580        765.00	    30.299
   8.600        883.33	    32.558
   8.620        995.83	    34.569
   8.640        957.50	    33.897
   8.660       1066.67	    35.777
   8.680       1118.33	    36.633
   8.700       1227.50	    38.380
   8.720       1168.33	    37.443
   8.740        890.83	    32.696
   8.760        530.83	    25.239
   8.780        360.83	    20.809
   8.800        279.17	    18.303
   8.820        212.50	    15.969
   8.840        232.50	    16.703
   8.860        238.33	    16.912
   8.880        241.67	    17.029
   8.900        234.17	    16.763
   8.920        214.17	    16.031
   8.940        219.17	    16.217
   8.960        205.00	    15.684
   8.980        207.50	    15.780
   9.000        274.17	    18.138
   9.020        308.33	    19.235
   9.040        268.33	    17.944
   9.060        257.50	    17.578
   9.080        201.67	    15.556
   9.100        186.67	    14.967
   9.120        185.00	    14.900
   9.140        236.67	    16.852
   9.160        204.17	    15.652
   9.180        242.50	    17.059
   9.200        253.33	    17.436
   9.220        286.67	    18.547
   9.240        350.00	    20.494
   9.260        447.50	    23.173
   9.280        460.00	    23.495
   9.300        362.50	    20.857
   9.320        271.67	    18.055
   9.340        225.00	    16.432
   9.360        180.00	    14.697
   9.380        142.50	    13.077
   9.400        164.17	    14.036
   9.420        148.33	    13.342
   9.440        145.00	    13.191
   9.460        148.33	    13.342
   9.480        166.67	    14.142
   9.500        189.17	    15.067
   9.520        155.83	    13.675
   9.540        136.67	    12.806
   9.560        155.00	    13.638
   9.580        160.00	    13.856
   9.600        146.67	    13.266
   9.620        165.00	    14.071
   9.640        165.83	    14.107
   9.660        145.83	    13.229
   9.680        145.83	    13.229
   9.700        140.83	    13.000
   9.720        154.17	    13.601
   9.740        128.33	    12.410
   9.760        129.17	    12.450
   9.780        148.33	    13.342
   9.800        121.67	    12.083
   9.820        150.83	    13.454
   9.840        125.00	    12.247
   9.860        121.67	    12.083
   9.880        137.50	    12.845
   9.900        133.33	    12.649
   9.920        135.83	    12.767
   9.940        136.67	    12.806
   9.960        138.33	    12.884
   9.980        125.83	    12.288
  10.000        134.17	    12.689
  10.020        130.00	    12.490
  10.040        125.83	    12.288
  10.060        129.17	    12.450
  10.080        149.17	    13.379
  10.100        145.83	    13.229
  10.120        120.83	    12.042
  10.140        137.50	    12.845
  10.160        116.67	    11.832
  10.180        140.83	    13.000
  10.200        145.00	    13.191
  10.220        156.67	    13.711
  10.240        172.50	    14.387
  10.260        169.17	    14.248
  10.280        200.00	    15.492
  10.300        220.83	    16.279
  10.320        228.33	    16.553
  10.340        278.33	    18.276
  10.360        381.67	    21.401
  10.380        354.17	    20.616
  10.400        250.83	    17.349
  10.420        187.50	    15.000
  10.440        139.17	    12.923
  10.460        128.33	    12.410
  10.480        125.00	    12.247
  10.500        127.50	    12.369
  10.520        119.17	    11.958
  10.540        120.83	    12.042
  10.560        160.83	    13.892
  10.580        117.50	    11.874
  10.600        140.00	    12.961
  10.620        119.17	    11.958
  10.640        102.50	    11.091
  10.660        115.00	    11.747
  10.680        106.67	    11.314
  10.700         92.50	    10.536
  10.720        120.00	    12.000
  10.740        120.00	    12.000
  10.760        112.50	    11.619
  10.780        119.17	    11.958
  10.800        122.50	    12.124
  10.820        124.17	    12.207
  10.840        135.83	    12.767
  10.860        133.33	    12.649
  10.880        137.50	    12.845
  10.900        108.33	    11.402
  10.920        120.00	    12.000
  10.940        121.67	    12.083
  10.960        101.67	    11.045
  10.980        132.50	    12.610
  11.000        110.83	    11.533
  11.020        144.17	    13.153
  11.040        104.17	    11.180
  11.060        115.00	    11.747
  11.080        120.00	    12.000
  11.100        138.33	    12.884
  11.120        138.33	    12.884
  11.140        116.67	    11.832
  11.160        112.50	    11.619
  11.180        110.00	    11.489
  11.200        125.00	    12.247
  11.220        115.00	    11.747
  11.240        125.00	    12.247
  11.260        118.33	    11.916
  11.280        133.33	    12.649
  11.300         95.83	    10.724
  11.320        144.17	    13.153
  11.340        138.33	    12.884
  11.360        125.00	    12.247
  11.380        119.17	    11.958
  11.400        113.33	    11.662
  11.420        145.00	    13.191
  11.440        136.67	    12.806
  11.460        114.17	    11.705
  11.480        127.50	    12.369
  11.500        138.33	    12.884
  11.520        131.67	    12.570
  11.540        150.83	    13.454
  11.560        137.50	    12.845
  11.580        128.33	    12.410
  11.600        135.83	    12.767
  11.620        142.50	    13.077
  11.640        147.50	    13.304
  11.660        140.00	    12.961
  11.680        146.67	    13.266
  11.700        157.50	    13.748
  11.720        153.33	    13.565
  11.740        184.17	    14.866
  11.760        190.83	    15.133
  11.780        189.17	    15.067
  11.800        210.83	    15.906
  11.820        243.33	    17.088
  11.840        232.50	    16.703
  11.860        266.67	    17.889
  11.880        347.50	    20.421
  11.900        453.33	    23.324
  11.920        629.17	    27.477
  11.940        828.33	    31.528
  11.960       1141.67	    37.014
  11.980       1487.50	    42.249
  12.000       1862.50	    47.276
  12.020       1912.50	    47.906
  12.040       1760.83	    45.967
  12.060       1266.67	    38.987
  12.080        838.33	    31.718
  12.100        621.67	    27.313
  12.120        580.00	    26.382
  12.140        627.50	    27.441
  12.160        716.67	    29.326
  12.180        761.67	    30.232
  12.200        687.50	    28.723
  12.220        622.50	    27.331
  12.240        612.50	    27.111
  12.260        640.00	    27.713
  12.280        747.50	    29.950
  12.300        837.50	    31.702
  12.320        919.17	    33.211
  12.340        770.00	    30.397
  12.360        563.33	    26.000
  12.380        380.83	    21.378
  12.400        230.00	    16.613
  12.420        160.83	    13.892
  12.440        165.83	    14.107
  12.460        151.67	    13.491
  12.480        137.50	    12.845
  12.500        129.17	    12.450
  12.520        145.00	    13.191
  12.540        139.17	    12.923
  12.560        119.17	    11.958
  12.580        136.67	    12.806
  12.600        124.17	    12.207
  12.620        108.33	    11.402
  12.640        129.17	    12.450
  12.660        118.33	    11.916
  12.680        130.00	    12.490
  12.700        123.33	    12.166
  12.720        110.00	    11.489
  12.740        111.67	    11.576
  12.760        121.67	    12.083
  12.780         97.50	    10.817
  12.800        124.17	    12.207
  12.820         97.50	    10.817
  12.840        100.00	    10.954
  12.860        105.00	    11.225
  12.880        110.00	    11.489
  12.900        113.33	    11.662
  12.920         97.50	    10.817
  12.940        117.50	    11.874
  12.960         96.67	    10.770
  12.980        116.67	    11.832
  13.000        100.00	    10.954
  13.020        116.67	    11.832
  13.040         95.83	    10.724
  13.060        110.83	    11.533
  13.080         95.00	    10.677
  13.100        105.00	    11.225
  13.120        123.33	    12.166
  13.140        103.33	    11.136
  13.160        115.83	    11.790
  13.180        114.17	    11.705
  13.200        124.17	    12.207
  13.220        116.67	    11.832
  13.240        125.83	    12.288
  13.260        102.50	    11.091
  13.280        101.67	    11.045
  13.300        115.83	    11.790
  13.320        115.83	    11.790
  13.340        127.50	    12.369
  13.360        115.83	    11.790
  13.380        105.83	    11.269
  13.400        113.33	    11.662
