
Filename:
	C:\Program Files\Thermo Electron\WinXRD\Datafiles\F_HERMAN\FIEN\G25_RT.raw

File Created:
	January 30, 2020 - 03:28 PM

Specimen Id:
	G 25 RT

Specimen Name:
	

Specimen Description:
	

Comment:
Scan Type: 2Theta Scan
Start Angle: 3 deg.
Stop Angle: 65 deg.
Num Points: 3101
Step Size: 0.02 deg.
Scan Rate: 1.000000
Scan Mode: Continuous
Wavelength: 1.540562
\Kalpha1: 1.540562	\Kalpha2: 1.544390	\Kbeta: 1.392218

Optics:
		Detector:
			 Type: Fixed Slits
		Tube: 
			 Type: Fixed Slits


Datas:
 Pos [deg]       Rate [CPS]      ESD [-]

Range 1 ---> Iteration 1
   3.000        434.17	    22.825
   3.020        437.50	    22.913
   3.040        418.33	    22.405
   3.060        418.33	    22.405
   3.080        409.17	    22.159
   3.100        445.83	    23.130
   3.120        420.00	    22.450
   3.140        452.50	    23.302
   3.160        415.83	    22.338
   3.180        362.50	    20.857
   3.200        405.83	    22.068
   3.220        406.67	    22.091
   3.240        408.33	    22.136
   3.260        425.83	    22.605
   3.280        380.00	    21.354
   3.300        410.00	    22.181
   3.320        408.33	    22.136
   3.340        415.00	    22.316
   3.360        400.00	    21.909
   3.380        386.67	    21.541
   3.400        381.67	    21.401
   3.420        379.17	    21.331
   3.440        388.33	    21.587
   3.460        366.67	    20.976
   3.480        376.67	    21.260
   3.500        390.00	    21.633
   3.520        335.83	    20.075
   3.540        370.00	    21.071
   3.560        353.33	    20.591
   3.580        411.67	    22.226
   3.600        375.00	    21.213
   3.620        355.00	    20.640
   3.640        376.67	    21.260
   3.660        359.17	    20.761
   3.680        335.00	    20.050
   3.700        346.67	    20.396
   3.720        330.83	    19.925
   3.740        375.83	    21.237
   3.760        365.00	    20.928
   3.780        341.67	    20.248
   3.800        329.17	    19.875
   3.820        354.17	    20.616
   3.840        319.17	    19.570
   3.860        304.17	    19.105
   3.880        308.33	    19.235
   3.900        325.83	    19.774
   3.920        342.50	    20.273
   3.940        339.17	    20.174
   3.960        305.00	    19.131
   3.980        330.00	    19.900
   4.000        327.50	    19.824
   4.020        303.33	    19.079
   4.040        292.50	    18.735
   4.060        321.67	    19.647
   4.080        342.50	    20.273
   4.100        299.17	    18.947
   4.120        315.00	    19.442
   4.140        305.00	    19.131
   4.160        311.67	    19.339
   4.180        311.67	    19.339
   4.200        269.17	    17.972
   4.220        315.00	    19.442
   4.240        305.83	    19.157
   4.260        274.17	    18.138
   4.280        285.00	    18.493
   4.300        318.33	    19.545
   4.320        285.00	    18.493
   4.340        280.00	    18.330
   4.360        315.00	    19.442
   4.380        266.67	    17.889
   4.400        275.00	    18.166
   4.420        241.67	    17.029
   4.440        263.33	    17.776
   4.460        293.33	    18.762
   4.480        256.67	    17.550
   4.500        263.33	    17.776
   4.520        251.67	    17.378
   4.540        260.83	    17.692
   4.560        275.00	    18.166
   4.580        255.83	    17.521
   4.600        282.50	    18.412
   4.620        259.17	    17.635
   4.640        274.17	    18.138
   4.660        271.67	    18.055
   4.680        290.83	    18.682
   4.700        276.67	    18.221
   4.720        250.83	    17.349
   4.740        250.00	    17.321
   4.760        236.67	    16.852
   4.780        228.33	    16.553
   4.800        260.00	    17.664
   4.820        250.83	    17.349
   4.840        256.67	    17.550
   4.860        279.17	    18.303
   4.880        260.00	    17.664
   4.900        258.33	    17.607
   4.920        242.50	    17.059
   4.940        255.00	    17.493
   4.960        235.00	    16.793
   4.980        265.00	    17.833
   5.000        245.00	    17.146
   5.020        250.83	    17.349
   5.040        258.33	    17.607
   5.060        240.83	    17.000
   5.080        280.00	    18.330
   5.100        239.17	    16.941
   5.120        240.83	    17.000
   5.140        233.33	    16.733
   5.160        265.83	    17.861
   5.180        248.33	    17.263
   5.200        244.17	    17.117
   5.220        189.17	    15.067
   5.240        215.00	    16.062
   5.260        229.17	    16.583
   5.280        224.17	    16.401
   5.300        250.00	    17.321
   5.320        248.33	    17.263
   5.340        248.33	    17.263
   5.360        225.00	    16.432
   5.380        233.33	    16.733
   5.400        229.17	    16.583
   5.420        235.00	    16.793
   5.440        230.00	    16.613
   5.460        230.83	    16.643
   5.480        235.00	    16.793
   5.500        221.67	    16.310
   5.520        220.83	    16.279
   5.540        228.33	    16.553
   5.560        250.00	    17.321
   5.580        230.83	    16.643
   5.600        214.17	    16.031
   5.620        207.50	    15.780
   5.640        228.33	    16.553
   5.660        210.00	    15.875
   5.680        216.67	    16.125
   5.700        204.17	    15.652
   5.720        243.33	    17.088
   5.740        216.67	    16.125
   5.760        211.67	    15.937
   5.780        249.17	    17.292
   5.800        237.50	    16.882
   5.820        254.17	    17.464
   5.840        249.17	    17.292
   5.860        273.33	    18.111
   5.880        287.50	    18.574
   5.900        327.50	    19.824
   5.920        314.17	    19.416
   5.940        311.67	    19.339
   5.960        288.33	    18.601
   5.980        247.50	    17.234
   6.000        267.50	    17.916
   6.020        279.17	    18.303
   6.040        212.50	    15.969
   6.060        274.17	    18.138
   6.080        244.17	    17.117
   6.100        268.33	    17.944
   6.120        265.83	    17.861
   6.140        274.17	    18.138
   6.160        318.33	    19.545
   6.180        288.33	    18.601
   6.200        279.17	    18.303
   6.220        230.83	    16.643
   6.240        217.50	    16.155
   6.260        208.33	    15.811
   6.280        205.83	    15.716
   6.300        199.17	    15.460
   6.320        206.67	    15.748
   6.340        200.83	    15.524
   6.360        205.83	    15.716
   6.380        203.33	    15.620
   6.400        209.17	    15.843
   6.420        201.67	    15.556
   6.440        231.67	    16.673
   6.460        175.83	    14.526
   6.480        197.50	    15.395
   6.500        196.67	    15.362
   6.520        185.00	    14.900
   6.540        206.67	    15.748
   6.560        197.50	    15.395
   6.580        190.00	    15.100
   6.600        184.17	    14.866
   6.620        178.33	    14.629
   6.640        209.17	    15.843
   6.660        194.17	    15.264
   6.680        197.50	    15.395
   6.700        200.00	    15.492
   6.720        187.50	    15.000
   6.740        163.33	    14.000
   6.760        190.00	    15.100
   6.780        172.50	    14.387
   6.800        180.00	    14.697
   6.820        181.67	    14.765
   6.840        179.17	    14.663
   6.860        154.17	    13.601
   6.880        193.33	    15.232
   6.900        152.50	    13.528
   6.920        185.83	    14.933
   6.940        165.83	    14.107
   6.960        150.83	    13.454
   6.980        192.50	    15.199
   7.000        172.50	    14.387
   7.020        187.50	    15.000
   7.040        170.83	    14.318
   7.060        167.50	    14.177
   7.080        179.17	    14.663
   7.100        160.83	    13.892
   7.120        176.67	    14.560
   7.140        170.83	    14.318
   7.160        161.67	    13.928
   7.180        169.17	    14.248
   7.200        173.33	    14.422
   7.220        171.67	    14.353
   7.240        177.50	    14.595
   7.260        136.67	    12.806
   7.280        141.67	    13.038
   7.300        167.50	    14.177
   7.320        138.33	    12.884
   7.340        161.67	    13.928
   7.360        169.17	    14.248
   7.380        160.00	    13.856
   7.400        170.00	    14.283
   7.420        164.17	    14.036
   7.440        162.50	    13.964
   7.460        155.83	    13.675
   7.480        166.67	    14.142
   7.500        165.00	    14.071
   7.520        147.50	    13.304
   7.540        141.67	    13.038
   7.560        132.50	    12.610
   7.580        158.33	    13.784
   7.600        155.00	    13.638
   7.620        144.17	    13.153
   7.640        168.33	    14.213
   7.660        151.67	    13.491
   7.680        168.33	    14.213
   7.700        155.00	    13.638
   7.720        135.00	    12.728
   7.740        126.67	    12.329
   7.760        139.17	    12.923
   7.780        153.33	    13.565
   7.800        145.83	    13.229
   7.820        161.67	    13.928
   7.840        153.33	    13.565
   7.860        165.00	    14.071
   7.880        180.00	    14.697
   7.900        147.50	    13.304
   7.920        159.17	    13.820
   7.940        138.33	    12.884
   7.960        137.50	    12.845
   7.980        152.50	    13.528
   8.000        155.00	    13.638
   8.020        142.50	    13.077
   8.040        139.17	    12.923
   8.060        128.33	    12.410
   8.080        150.83	    13.454
   8.100        156.67	    13.711
   8.120        152.50	    13.528
   8.140        151.67	    13.491
   8.160        149.17	    13.379
   8.180        154.17	    13.601
   8.200        153.33	    13.565
   8.220        162.50	    13.964
   8.240        135.83	    12.767
   8.260        149.17	    13.379
   8.280        153.33	    13.565
   8.300        155.83	    13.675
   8.320        150.83	    13.454
   8.340        152.50	    13.528
   8.360        158.33	    13.784
   8.380        150.83	    13.454
   8.400        134.17	    12.689
   8.420        153.33	    13.565
   8.440        154.17	    13.601
   8.460        145.83	    13.229
   8.480        161.67	    13.928
   8.500        148.33	    13.342
   8.520        172.50	    14.387
   8.540        158.33	    13.784
   8.560        199.17	    15.460
   8.580        195.83	    15.330
   8.600        198.33	    15.427
   8.620        215.83	    16.093
   8.640        195.00	    15.297
   8.660        225.83	    16.462
   8.680        270.00	    18.000
   8.700        262.50	    17.748
   8.720        249.17	    17.292
   8.740        349.17	    20.469
   8.760        502.50	    24.556
   8.780        636.67	    27.641
   8.800        830.83	    31.575
   8.820        752.50	    30.050
   8.840        497.50	    24.434
   8.860        320.83	    19.621
   8.880        211.67	    15.937
   8.900        190.00	    15.100
   8.920        154.17	    13.601
   8.940        164.17	    14.036
   8.960        165.00	    14.071
   8.980        135.83	    12.767
   9.000        142.50	    13.077
   9.020        123.33	    12.166
   9.040        152.50	    13.528
   9.060        139.17	    12.923
   9.080        186.67	    14.967
   9.100        142.50	    13.077
   9.120        165.83	    14.107
   9.140        165.83	    14.107
   9.160        128.33	    12.410
   9.180        134.17	    12.689
   9.200        131.67	    12.570
   9.220        124.17	    12.207
   9.240        113.33	    11.662
   9.260        126.67	    12.329
   9.280        138.33	    12.884
   9.300        115.00	    11.747
   9.320        114.17	    11.705
   9.340        153.33	    13.565
   9.360        141.67	    13.038
   9.380        179.17	    14.663
   9.400        156.67	    13.711
   9.420        126.67	    12.329
   9.440        125.83	    12.288
   9.460        105.00	    11.225
   9.480        136.67	    12.806
   9.500        137.50	    12.845
   9.520        111.67	    11.576
   9.540        138.33	    12.884
   9.560         94.17	    10.630
   9.580        116.67	    11.832
   9.600        116.67	    11.832
   9.620        114.17	    11.705
   9.640        120.00	    12.000
   9.660        114.17	    11.705
   9.680        121.67	    12.083
   9.700        132.50	    12.610
   9.720        121.67	    12.083
   9.740        108.33	    11.402
   9.760         94.17	    10.630
   9.780        109.17	    11.446
   9.800        120.83	    12.042
   9.820        105.83	    11.269
   9.840         92.50	    10.536
   9.860        125.83	    12.288
   9.880        123.33	    12.166
   9.900        115.00	    11.747
   9.920        113.33	    11.662
   9.940        100.83	    11.000
   9.960        113.33	    11.662
   9.980        107.50	    11.358
  10.000        117.50	    11.874
  10.020        121.67	    12.083
  10.040        110.83	    11.533
  10.060        100.00	    10.954
  10.080        112.50	    11.619
  10.100         84.17	    10.050
  10.120        114.17	    11.705
  10.140        100.83	    11.000
  10.160        103.33	    11.136
  10.180        112.50	    11.619
  10.200        110.83	    11.533
  10.220         99.17	    10.909
  10.240        105.83	    11.269
  10.260        111.67	    11.576
  10.280        110.83	    11.533
  10.300        105.00	    11.225
  10.320        113.33	    11.662
  10.340        117.50	    11.874
  10.360        147.50	    13.304
  10.380        151.67	    13.491
  10.400        179.17	    14.663
  10.420        257.50	    17.578
  10.440        237.50	    16.882
  10.460        239.17	    16.941
  10.480        196.67	    15.362
  10.500        167.50	    14.177
  10.520        159.17	    13.820
  10.540        117.50	    11.874
  10.560        107.50	    11.358
  10.580         80.00	     9.798
  10.600        102.50	    11.091
  10.620        115.83	    11.790
  10.640         95.83	    10.724
  10.660         92.50	    10.536
  10.680        119.17	    11.958
  10.700        102.50	    11.091
  10.720        113.33	    11.662
  10.740         86.67	    10.198
  10.760        106.67	    11.314
  10.780        105.00	    11.225
  10.800         91.67	    10.488
  10.820        105.83	    11.269
  10.840         81.67	     9.899
  10.860        106.67	    11.314
  10.880        105.83	    11.269
  10.900        100.00	    10.954
  10.920        109.17	    11.446
  10.940        102.50	    11.091
  10.960        115.83	    11.790
  10.980        103.33	    11.136
  11.000         94.17	    10.630
  11.020         81.67	     9.899
  11.040         86.67	    10.198
  11.060         94.17	    10.630
  11.080        101.67	    11.045
  11.100        110.00	    11.489
  11.120         95.00	    10.677
  11.140         95.83	    10.724
  11.160         82.50	     9.950
  11.180         93.33	    10.583
  11.200        106.67	    11.314
  11.220         94.17	    10.630
  11.240        116.67	    11.832
  11.260         95.83	    10.724
  11.280        100.83	    11.000
  11.300        101.67	    11.045
  11.320         83.33	    10.000
  11.340        101.67	    11.045
  11.360         88.33	    10.296
  11.380        100.00	    10.954
  11.400        110.83	    11.533
  11.420         84.17	    10.050
  11.440         95.83	    10.724
  11.460         79.17	     9.747
  11.480         84.17	    10.050
  11.500         91.67	    10.488
  11.520         87.50	    10.247
  11.540         87.50	    10.247
  11.560         85.00	    10.100
  11.580         89.17	    10.344
  11.600        103.33	    11.136
  11.620         87.50	    10.247
  11.640         99.17	    10.909
  11.660         93.33	    10.583
  11.680         84.17	    10.050
  11.700         96.67	    10.770
  11.720         88.33	    10.296
  11.740         98.33	    10.863
  11.760         96.67	    10.770
  11.780         99.17	    10.909
  11.800        100.00	    10.954
  11.820         95.83	    10.724
  11.840         98.33	    10.863
  11.860        116.67	    11.832
  11.880        100.83	    11.000
  11.900        102.50	    11.091
  11.920        128.33	    12.410
  11.940        126.67	    12.329
  11.960        112.50	    11.619
  11.980        130.83	    12.530
  12.000        115.83	    11.790
  12.020        147.50	    13.304
  12.040        178.33	    14.629
  12.060        203.33	    15.620
  12.080        310.00	    19.287
  12.100        510.83	    24.759
  12.120        812.50	    31.225
  12.140        766.67	    30.332
  12.160        537.50	    25.397
  12.180        313.33	    19.391
  12.200        160.83	    13.892
  12.220        170.00	    14.283
  12.240        165.83	    14.107
  12.260        165.83	    14.107
  12.280        175.83	    14.526
  12.300        201.67	    15.556
  12.320        162.50	    13.964
  12.340        209.17	    15.843
  12.360        243.33	    17.088
  12.380        283.33	    18.439
  12.400        384.17	    21.471
  12.420        484.17	    24.104
  12.440        459.17	    23.473
  12.460        390.00	    21.633
  12.480        244.17	    17.117
  12.500        175.00	    14.491
  12.520        116.67	    11.832
  12.540        120.83	    12.042
  12.560         95.83	    10.724
  12.580         96.67	    10.770
  12.600         88.33	    10.296
  12.620         93.33	    10.583
  12.640         94.17	    10.630
  12.660         87.50	    10.247
  12.680         87.50	    10.247
  12.700         96.67	    10.770
  12.720         88.33	    10.296
  12.740         78.33	     9.695
  12.760         78.33	     9.695
  12.780         78.33	     9.695
  12.800         71.67	     9.274
  12.820         86.67	    10.198
  12.840         83.33	    10.000
  12.860         88.33	    10.296
  12.880         91.67	    10.488
  12.900         87.50	    10.247
  12.920         86.67	    10.198
  12.940         85.83	    10.149
  12.960         90.00	    10.392
  12.980        107.50	    11.358
  13.000         75.83	     9.539
  13.020         72.50	     9.327
  13.040         80.83	     9.849
  13.060         84.17	    10.050
  13.080         89.17	    10.344
  13.100         80.00	     9.798
  13.120         94.17	    10.630
  13.140         71.67	     9.274
  13.160         80.00	     9.798
  13.180         90.00	    10.392
  13.200         66.67	     8.944
  13.220         86.67	    10.198
  13.240         95.00	    10.677
  13.260         83.33	    10.000
  13.280         70.83	     9.220
  13.300         96.67	    10.770
  13.320         77.50	     9.644
  13.340         68.33	     9.055
  13.360         85.00	    10.100
  13.380         85.00	    10.100
  13.400         80.83	     9.849
  13.420         80.83	     9.849
  13.440         82.50	     9.950
  13.460         80.00	     9.798
  13.480         95.00	    10.677
  13.500         72.50	     9.327
  13.520         74.17	     9.434
  13.540         96.67	    10.770
  13.560        105.00	    11.225
  13.580         86.67	    10.198
  13.600         77.50	     9.644
  13.620         82.50	     9.950
  13.640         65.83	     8.888
  13.660         79.17	     9.747
  13.680         75.83	     9.539
  13.700         80.83	     9.849
  13.720         94.17	    10.630
  13.740        108.33	    11.402
  13.760        164.17	    14.036
  13.780        204.17	    15.652
  13.800        184.17	    14.866
  13.820        133.33	    12.649
  13.840        111.67	    11.576
  13.860         94.17	    10.630
  13.880         80.00	     9.798
  13.900         84.17	    10.050
  13.920         91.67	    10.488
  13.940         71.67	     9.274
  13.960         84.17	    10.050
  13.980         76.67	     9.592
  14.000         81.67	     9.899
  14.020         82.50	     9.950
  14.040         66.67	     8.944
  14.060         83.33	    10.000
  14.080         82.50	     9.950
  14.100         73.33	     9.381
  14.120         70.00	     9.165
  14.140         70.83	     9.220
  14.160         65.00	     8.832
  14.180         55.83	     8.185
  14.200         92.50	    10.536
  14.220         79.17	     9.747
  14.240         69.17	     9.110
  14.260         59.17	     8.426
  14.280         61.67	     8.602
  14.300         68.33	     9.055
  14.320         71.67	     9.274
  14.340         61.67	     8.602
  14.360         62.50	     8.660
  14.380         85.00	    10.100
  14.400         73.33	     9.381
