
Filename:
	C:\Program Files\Thermo Electron\WinXRD\Datafiles\F_HERMAN\GEO\G27_RT.raw

File Created:
	February 21, 2020 - 07:34 PM

Specimen Id:
	G27_RT

Specimen Name:
	

Specimen Description:
	

Comment:
Scan Type: 2Theta Scan
Start Angle: 3 deg.
Stop Angle: 65 deg.
Num Points: 3101
Step Size: 0.02 deg.
Scan Rate: 1.000000
Scan Mode: Continuous
Wavelength: 1.540562
\Kalpha1: 1.540562	\Kalpha2: 1.544390	\Kbeta: 1.392218

Optics:
		Detector:
			 Type: Fixed Slits
		Tube: 
			 Type: Fixed Slits


Datas:
 Pos [deg]       Rate [CPS]      ESD [-]

Range 1 ---> Iteration 1
   3.000        447.50	    23.173
   3.020        472.50	    23.812
   3.040        453.33	    23.324
   3.060        470.83	    23.770
   3.080        442.50	    23.043
   3.100        471.67	    23.791
   3.120        452.50	    23.302
   3.140        415.00	    22.316
   3.160        452.50	    23.302
   3.180        427.50	    22.650
   3.200        432.50	    22.782
   3.220        440.00	    22.978
   3.240        405.00	    22.045
   3.260        424.17	    22.561
   3.280        423.33	    22.539
   3.300        399.17	    21.886
   3.320        400.83	    21.932
   3.340        402.50	    21.977
   3.360        384.17	    21.471
   3.380        429.17	    22.694
   3.400        415.83	    22.338
   3.420        399.17	    21.886
   3.440        391.67	    21.679
   3.460        379.17	    21.331
   3.480        383.33	    21.448
   3.500        351.67	    20.543
   3.520        379.17	    21.331
   3.540        388.33	    21.587
   3.560        385.83	    21.517
   3.580        365.00	    20.928
   3.600        366.67	    20.976
   3.620        364.17	    20.905
   3.640        345.00	    20.347
   3.660        362.50	    20.857
   3.680        349.17	    20.469
   3.700        356.67	    20.688
   3.720        360.83	    20.809
   3.740        370.00	    21.071
   3.760        338.33	    20.149
   3.780        341.67	    20.248
   3.800        372.50	    21.142
   3.820        370.00	    21.071
   3.840        355.83	    20.664
   3.860        341.67	    20.248
   3.880        321.67	    19.647
   3.900        313.33	    19.391
   3.920        360.00	    20.785
   3.940        317.50	    19.519
   3.960        299.17	    18.947
   3.980        373.33	    21.166
   4.000        300.83	    19.000
   4.020        338.33	    20.149
   4.040        301.67	    19.026
   4.060        295.83	    18.841
   4.080        319.17	    19.570
   4.100        295.00	    18.815
   4.120        318.33	    19.545
   4.140        302.50	    19.053
   4.160        294.17	    18.788
   4.180        312.50	    19.365
   4.200        314.17	    19.416
   4.220        295.83	    18.841
   4.240        300.00	    18.974
   4.260        300.83	    19.000
   4.280        317.50	    19.519
   4.300        304.17	    19.105
   4.320        282.50	    18.412
   4.340        290.83	    18.682
   4.360        302.50	    19.053
   4.380        263.33	    17.776
   4.400        278.33	    18.276
   4.420        322.50	    19.672
   4.440        282.50	    18.412
   4.460        290.00	    18.655
   4.480        273.33	    18.111
   4.500        278.33	    18.276
   4.520        285.00	    18.493
   4.540        275.83	    18.193
   4.560        277.50	    18.248
   4.580        263.33	    17.776
   4.600        290.83	    18.682
   4.620        274.17	    18.138
   4.640        277.50	    18.248
   4.660        262.50	    17.748
   4.680        272.50	    18.083
   4.700        281.67	    18.385
   4.720        270.83	    18.028
   4.740        265.00	    17.833
   4.760        258.33	    17.607
   4.780        274.17	    18.138
   4.800        265.00	    17.833
   4.820        280.00	    18.330
   4.840        276.67	    18.221
   4.860        258.33	    17.607
   4.880        253.33	    17.436
   4.900        262.50	    17.748
   4.920        247.50	    17.234
   4.940        271.67	    18.055
   4.960        230.83	    16.643
   4.980        265.83	    17.861
   5.000        255.83	    17.521
   5.020        222.50	    16.340
   5.040        240.83	    17.000
   5.060        273.33	    18.111
   5.080        257.50	    17.578
   5.100        252.50	    17.407
   5.120        227.50	    16.523
   5.140        225.83	    16.462
   5.160        261.67	    17.720
   5.180        254.17	    17.464
   5.200        230.83	    16.643
   5.220        247.50	    17.234
   5.240        233.33	    16.733
   5.260        246.67	    17.205
   5.280        233.33	    16.733
   5.300        204.17	    15.652
   5.320        222.50	    16.340
   5.340        238.33	    16.912
   5.360        217.50	    16.155
   5.380        262.50	    17.748
   5.400        220.83	    16.279
   5.420        215.00	    16.062
   5.440        234.17	    16.763
   5.460        239.17	    16.941
   5.480        230.83	    16.643
   5.500        259.17	    17.635
   5.520        228.33	    16.553
   5.540        235.83	    16.823
   5.560        240.00	    16.971
   5.580        216.67	    16.125
   5.600        225.83	    16.462
   5.620        206.67	    15.748
   5.640        232.50	    16.703
   5.660        236.67	    16.852
   5.680        244.17	    17.117
   5.700        245.83	    17.176
   5.720        230.00	    16.613
   5.740        241.67	    17.029
   5.760        250.00	    17.321
   5.780        246.67	    17.205
   5.800        231.67	    16.673
   5.820        260.83	    17.692
   5.840        284.17	    18.466
   5.860        274.17	    18.138
   5.880        275.83	    18.193
   5.900        287.50	    18.574
   5.920        335.00	    20.050
   5.940        312.50	    19.365
   5.960        335.83	    20.075
   5.980        305.00	    19.131
   6.000        270.00	    18.000
   6.020        260.83	    17.692
   6.040        274.17	    18.138
   6.060        303.33	    19.079
   6.080        302.50	    19.053
   6.100        323.33	    19.698
   6.120        369.17	    21.048
   6.140        315.83	    19.468
   6.160        305.83	    19.157
   6.180        262.50	    17.748
   6.200        245.00	    17.146
   6.220        234.17	    16.763
   6.240        225.83	    16.462
   6.260        227.50	    16.523
   6.280        217.50	    16.155
   6.300        216.67	    16.125
   6.320        227.50	    16.523
   6.340        224.17	    16.401
   6.360        215.00	    16.062
   6.380        199.17	    15.460
   6.400        228.33	    16.553
   6.420        200.83	    15.524
   6.440        205.00	    15.684
   6.460        209.17	    15.843
   6.480        212.50	    15.969
   6.500        190.00	    15.100
   6.520        210.83	    15.906
   6.540        182.50	    14.799
   6.560        195.83	    15.330
   6.580        189.17	    15.067
   6.600        209.17	    15.843
   6.620        211.67	    15.937
   6.640        190.83	    15.133
   6.660        176.67	    14.560
   6.680        160.00	    13.856
   6.700        185.83	    14.933
   6.720        188.33	    15.033
   6.740        196.67	    15.362
   6.760        198.33	    15.427
   6.780        185.00	    14.900
   6.800        195.83	    15.330
   6.820        185.00	    14.900
   6.840        185.00	    14.900
   6.860        165.83	    14.107
   6.880        205.00	    15.684
   6.900        176.67	    14.560
   6.920        180.83	    14.731
   6.940        190.00	    15.100
   6.960        200.00	    15.492
   6.980        167.50	    14.177
   7.000        165.83	    14.107
   7.020        175.00	    14.491
   7.040        170.83	    14.318
   7.060        178.33	    14.629
   7.080        159.17	    13.820
   7.100        169.17	    14.248
   7.120        186.67	    14.967
   7.140        190.83	    15.133
   7.160        163.33	    14.000
   7.180        180.00	    14.697
   7.200        160.00	    13.856
   7.220        157.50	    13.748
   7.240        179.17	    14.663
   7.260        161.67	    13.928
   7.280        188.33	    15.033
   7.300        160.00	    13.856
   7.320        151.67	    13.491
   7.340        170.83	    14.318
   7.360        171.67	    14.353
   7.380        175.83	    14.526
   7.400        157.50	    13.748
   7.420        178.33	    14.629
   7.440        150.83	    13.454
   7.460        183.33	    14.832
   7.480        143.33	    13.115
   7.500        164.17	    14.036
   7.520        150.83	    13.454
   7.540        165.83	    14.107
   7.560        142.50	    13.077
   7.580        155.00	    13.638
   7.600        158.33	    13.784
   7.620        160.83	    13.892
   7.640        149.17	    13.379
   7.660        171.67	    14.353
   7.680        162.50	    13.964
   7.700        161.67	    13.928
   7.720        165.00	    14.071
   7.740        156.67	    13.711
   7.760        143.33	    13.115
   7.780        139.17	    12.923
   7.800        157.50	    13.748
   7.820        149.17	    13.379
   7.840        174.17	    14.457
   7.860        146.67	    13.266
   7.880        168.33	    14.213
   7.900        160.83	    13.892
   7.920        162.50	    13.964
   7.940        148.33	    13.342
   7.960        169.17	    14.248
   7.980        137.50	    12.845
   8.000        141.67	    13.038
   8.020        150.00	    13.416
   8.040        152.50	    13.528
   8.060        138.33	    12.884
   8.080        170.00	    14.283
   8.100        155.83	    13.675
   8.120        175.83	    14.526
   8.140        156.67	    13.711
   8.160        164.17	    14.036
   8.180        165.83	    14.107
   8.200        152.50	    13.528
   8.220        162.50	    13.964
   8.240        165.00	    14.071
   8.260        165.83	    14.107
   8.280        155.00	    13.638
   8.300        177.50	    14.595
   8.320        170.00	    14.283
   8.340        165.83	    14.107
   8.360        180.00	    14.697
   8.380        175.83	    14.526
   8.400        190.00	    15.100
   8.420        179.17	    14.663
   8.440        168.33	    14.213
   8.460        170.00	    14.283
   8.480        168.33	    14.213
   8.500        176.67	    14.560
   8.520        226.67	    16.492
   8.540        210.83	    15.906
   8.560        187.50	    15.000
   8.580        255.00	    17.493
   8.600        258.33	    17.607
   8.620        287.50	    18.574
   8.640        290.00	    18.655
   8.660        351.67	    20.543
   8.680        353.33	    20.591
   8.700        422.50	    22.517
   8.720        541.67	    25.495
   8.740        745.00	    29.900
   8.760        884.17	    32.573
   8.780        947.50	    33.719
   8.800        669.17	    28.337
   8.820        400.83	    21.932
   8.840        249.17	    17.292
   8.860        211.67	    15.937
   8.880        174.17	    14.457
   8.900        160.83	    13.892
   8.920        169.17	    14.248
   8.940        140.00	    12.961
   8.960        157.50	    13.748
   8.980        146.67	    13.266
   9.000        174.17	    14.457
   9.020        179.17	    14.663
   9.040        170.00	    14.283
   9.060        177.50	    14.595
   9.080        189.17	    15.067
   9.100        161.67	    13.928
   9.120        150.83	    13.454
   9.140        134.17	    12.689
   9.160        139.17	    12.923
   9.180        131.67	    12.570
   9.200        155.83	    13.675
   9.220        105.00	    11.225
   9.240        156.67	    13.711
   9.260        140.83	    13.000
   9.280        121.67	    12.083
   9.300        152.50	    13.528
   9.320        164.17	    14.036
   9.340        145.83	    13.229
   9.360        151.67	    13.491
   9.380        124.17	    12.207
   9.400        135.00	    12.728
   9.420        137.50	    12.845
   9.440        116.67	    11.832
   9.460        125.83	    12.288
   9.480        118.33	    11.916
   9.500        126.67	    12.329
   9.520        141.67	    13.038
   9.540        110.00	    11.489
   9.560        119.17	    11.958
   9.580        126.67	    12.329
   9.600        125.00	    12.247
   9.620        125.83	    12.288
   9.640        105.00	    11.225
   9.660        117.50	    11.874
   9.680        110.83	    11.533
   9.700        128.33	    12.410
   9.720        135.83	    12.767
   9.740        113.33	    11.662
   9.760        115.83	    11.790
   9.780        108.33	    11.402
   9.800        109.17	    11.446
   9.820        125.00	    12.247
   9.840        124.17	    12.207
   9.860        110.83	    11.533
   9.880        125.83	    12.288
   9.900        118.33	    11.916
   9.920         95.00	    10.677
   9.940        120.83	    12.042
   9.960        124.17	    12.207
   9.980        110.83	    11.533
  10.000        101.67	    11.045
  10.020         89.17	    10.344
  10.040        112.50	    11.619
  10.060        130.83	    12.530
  10.080        119.17	    11.958
  10.100        111.67	    11.576
  10.120        113.33	    11.662
  10.140         99.17	    10.909
  10.160        104.17	    11.180
  10.180        107.50	    11.358
  10.200        111.67	    11.576
  10.220        121.67	    12.083
  10.240        110.83	    11.533
  10.260        105.00	    11.225
  10.280        117.50	    11.874
  10.300        115.00	    11.747
  10.320        122.50	    12.124
  10.340        130.83	    12.530
  10.360        165.83	    14.107
  10.380        167.50	    14.177
  10.400        180.00	    14.697
  10.420        205.83	    15.716
  10.440        228.33	    16.553
  10.460        194.17	    15.264
  10.480        137.50	    12.845
  10.500        131.67	    12.570
  10.520        114.17	    11.705
  10.540        111.67	    11.576
  10.560         96.67	    10.770
  10.580        112.50	    11.619
  10.600        101.67	    11.045
  10.620         97.50	    10.817
  10.640        114.17	    11.705
  10.660         90.00	    10.392
  10.680        115.83	    11.790
  10.700         95.83	    10.724
  10.720        120.00	    12.000
  10.740        103.33	    11.136
  10.760        114.17	    11.705
  10.780        103.33	    11.136
  10.800         97.50	    10.817
  10.820         94.17	    10.630
  10.840        105.00	    11.225
  10.860         97.50	    10.817
  10.880        110.83	    11.533
  10.900        104.17	    11.180
  10.920        111.67	    11.576
  10.940        115.00	    11.747
  10.960        106.67	    11.314
  10.980         90.83	    10.440
  11.000         93.33	    10.583
  11.020        107.50	    11.358
  11.040         98.33	    10.863
  11.060         91.67	    10.488
  11.080        105.00	    11.225
  11.100        108.33	    11.402
  11.120        105.83	    11.269
  11.140        109.17	    11.446
  11.160        105.00	    11.225
  11.180        105.00	    11.225
  11.200        108.33	    11.402
  11.220         92.50	    10.536
  11.240        108.33	    11.402
  11.260         93.33	    10.583
  11.280        111.67	    11.576
  11.300         93.33	    10.583
  11.320        114.17	    11.705
  11.340         99.17	    10.909
  11.360         94.17	    10.630
  11.380        111.67	    11.576
  11.400        100.00	    10.954
  11.420         89.17	    10.344
  11.440        100.00	    10.954
  11.460        109.17	    11.446
  11.480        105.83	    11.269
  11.500         95.83	    10.724
  11.520         95.83	    10.724
  11.540        115.83	    11.790
  11.560        100.00	    10.954
  11.580        100.83	    11.000
  11.600        101.67	    11.045
  11.620        102.50	    11.091
  11.640         89.17	    10.344
  11.660        100.83	    11.000
  11.680         87.50	    10.247
  11.700        104.17	    11.180
  11.720         87.50	    10.247
  11.740         95.83	    10.724
  11.760        100.00	    10.954
  11.780         76.67	     9.592
  11.800        108.33	    11.402
  11.820        101.67	    11.045
  11.840         96.67	    10.770
  11.860         98.33	    10.863
  11.880        124.17	    12.207
  11.900        109.17	    11.446
  11.920        118.33	    11.916
  11.940        135.00	    12.728
  11.960        133.33	    12.649
  11.980        155.00	    13.638
  12.000        171.67	    14.353
  12.020        191.67	    15.166
  12.040        283.33	    18.439
  12.060        319.17	    19.570
  12.080        382.50	    21.424
  12.100        345.00	    20.347
  12.120        275.00	    18.166
  12.140        175.00	    14.491
  12.160        159.17	    13.820
  12.180        172.50	    14.387
  12.200        155.83	    13.675
  12.220        206.67	    15.748
  12.240        220.00	    16.248
  12.260        209.17	    15.843
  12.280        209.17	    15.843
  12.300        205.00	    15.684
  12.320        203.33	    15.620
  12.340        287.50	    18.574
  12.360        301.67	    19.026
  12.380        437.50	    22.913
  12.400        418.33	    22.405
  12.420        340.83	    20.224
  12.440        245.00	    17.146
  12.460        154.17	    13.601
  12.480        118.33	    11.916
  12.500        116.67	    11.832
  12.520         95.00	    10.677
  12.540        107.50	    11.358
  12.560        105.00	    11.225
  12.580        100.83	    11.000
  12.600        102.50	    11.091
  12.620         91.67	    10.488
  12.640         99.17	    10.909
  12.660         85.00	    10.100
  12.680         94.17	    10.630
  12.700         83.33	    10.000
  12.720         82.50	     9.950
  12.740         76.67	     9.592
  12.760         81.67	     9.899
  12.780         76.67	     9.592
  12.800         93.33	    10.583
  12.820         76.67	     9.592
  12.840         75.00	     9.487
  12.860         75.00	     9.487
  12.880         85.00	    10.100
  12.900         85.00	    10.100
  12.920         76.67	     9.592
  12.940         84.17	    10.050
  12.960         83.33	    10.000
  12.980         94.17	    10.630
  13.000         86.67	    10.198
  13.020         90.83	    10.440
  13.040         87.50	    10.247
  13.060         83.33	    10.000
  13.080         94.17	    10.630
  13.100         73.33	     9.381
  13.120         97.50	    10.817
  13.140         96.67	    10.770
  13.160         86.67	    10.198
  13.180         74.17	     9.434
  13.200         80.00	     9.798
  13.220         97.50	    10.817
  13.240         80.83	     9.849
  13.260         91.67	    10.488
  13.280         80.00	     9.798
  13.300         74.17	     9.434
  13.320         92.50	    10.536
  13.340         76.67	     9.592
  13.360         78.33	     9.695
  13.380         87.50	    10.247
  13.400         98.33	    10.863
  13.420         75.00	     9.487
  13.440         82.50	     9.950
  13.460         83.33	    10.000
  13.480         78.33	     9.695
  13.500         81.67	     9.899
  13.520         94.17	    10.630
  13.540         70.83	     9.220
  13.560        103.33	    11.136
  13.580         90.83	    10.440
  13.600         89.17	    10.344
  13.620         77.50	     9.644
  13.640         85.83	    10.149
  13.660         74.17	     9.434
  13.680         81.67	     9.899
  13.700         93.33	    10.583
  13.720        125.83	    12.288
  13.740        156.67	    13.711
  13.760        143.33	    13.115
  13.780        110.00	    11.489
  13.800         85.00	    10.100
  13.820         94.17	    10.630
  13.840         80.00	     9.798
  13.860         78.33	     9.695
  13.880         91.67	    10.488
  13.900         99.17	    10.909
  13.920         76.67	     9.592
  13.940         68.33	     9.055
  13.960         82.50	     9.950
  13.980         90.00	    10.392
  14.000         64.17	     8.775
  14.020         92.50	    10.536
  14.040         95.00	    10.677
  14.060         61.67	     8.602
  14.080         78.33	     9.695
  14.100         69.17	     9.110
  14.120         79.17	     9.747
  14.140         67.50	     9.000
  14.160         63.33	     8.718
  14.180         72.50	     9.327
  14.200         83.33	    10.000
  14.220         77.50	     9.644
  14.240         80.83	     9.849
  14.260         68.33	     9.055
  14.280         78.33	     9.695
  14.300         66.67	     8.944
  14.320         80.83	     9.849
  14.340         80.83	     9.849
  14.360         75.83	     9.539
  14.380         65.83	     8.888
  14.400         66.67	     8.944
