
Filename:
	C:\Program Files\Thermo Electron\WinXRD\Datafiles\F_HERMAN\FIEN\G27A_FT.raw

File Created:
	October 02, 2019 - 05:06 PM

Specimen Id:
	G27A FT

Specimen Name:
	

Specimen Description:
	

Comment:
Scan Type: 2Theta Scan
Start Angle: 1 deg.
Stop Angle: 65 deg.
Num Points: 3201
Step Size: 0.02 deg.
Scan Rate: 1.000000
Scan Mode: Continuous
Wavelength: 1.540562
\Kalpha1: 1.540562	\Kalpha2: 1.544390	\Kbeta: 1.392218

Optics:
		Detector:
			 Type: Fixed Slits
		Tube: 
			 Type: Fixed Slits


Datas:
 Pos [deg]       Rate [CPS]      ESD [-]

Range 1 ---> Iteration 1
   1.000          0.00	     0.000
   1.020          0.00	     0.000
   1.040          0.00	     0.000
   1.060          0.00	     0.000
   1.080          0.00	     0.000
   1.100          0.00	     0.000
   1.120        511.67	    24.779
   1.140        579.17	    26.363
   1.160        305.83	    19.157
   1.180        269.17	    17.972
   1.200        240.83	    17.000
   1.220        278.33	    18.276
   1.240        264.17	    17.804
   1.260        459.17	    23.473
   1.280        378.33	    21.307
   1.300        335.00	    20.050
   1.320        360.00	    20.785
   1.340        300.83	    19.000
   1.360        319.17	    19.570
   1.380        436.67	    22.891
   1.400        495.00	    24.372
   1.420        645.00	    27.821
   1.440        964.17	    34.015
   1.460       1204.17	    38.013
   1.480       2064.17	    49.769
   1.500       2398.33	    53.647
   1.520       2611.67	    55.982
   1.540       2530.00	    55.100
   1.560       2681.67	    56.727
   1.580       2424.17	    53.935
   1.600       2336.67	    52.953
   1.620       2420.83	    53.898
   1.640       2347.50	    53.075
   1.660       2305.83	    52.602
   1.680       2440.83	    54.120
   1.700       2350.00	    53.104
   1.720       2284.17	    52.355
   1.740       2165.00	    50.971
   1.760       2180.83	    51.157
   1.780       2080.00	    49.960
   1.800       1967.50	    48.590
   1.820       1816.67	    46.690
   1.840       1568.33	    43.382
   1.860       1482.50	    42.178
   1.880       1285.00	    39.268
   1.900       1150.83	    37.162
   1.920       1062.50	    35.707
   1.940        897.50	    32.818
   1.960        885.00	    32.588
   1.980        695.83	    28.896
   2.000        759.17	    30.183
   2.020        715.83	    29.309
   2.040        697.50	    28.931
   2.060        730.83	    29.614
   2.080        713.33	    29.257
   2.100        690.00	    28.775
   2.120        709.17	    29.172
   2.140        690.83	    28.792
   2.160        654.17	    28.018
   2.180        649.17	    27.911
   2.200        705.83	    29.103
   2.220        627.50	    27.441
   2.240        615.83	    27.185
   2.260        628.33	    27.459
   2.280        625.83	    27.404
   2.300        585.83	    26.514
   2.320        590.00	    26.608
   2.340        565.00	    26.038
   2.360        598.33	    26.796
   2.380        581.67	    26.420
   2.400        585.83	    26.514
   2.420        533.33	    25.298
   2.440        532.50	    25.278
   2.460        545.83	    25.593
   2.480        566.67	    26.077
   2.500        527.50	    25.159
   2.520        540.83	    25.475
   2.540        527.50	    25.159
   2.560        490.00	    24.249
   2.580        448.33	    23.195
   2.600        520.00	    24.980
   2.620        510.83	    24.759
   2.640        482.50	    24.062
   2.660        468.33	    23.707
   2.680        483.33	    24.083
   2.700        475.00	    23.875
   2.720        475.00	    23.875
   2.740        445.83	    23.130
   2.760        477.50	    23.937
   2.780        439.17	    22.956
   2.800        451.67	    23.281
   2.820        430.00	    22.716
   2.840        460.00	    23.495
   2.860        443.33	    23.065
   2.880        447.50	    23.173
   2.900        409.17	    22.159
   2.920        425.83	    22.605
   2.940        424.17	    22.561
   2.960        410.83	    22.204
   2.980        412.50	    22.249
   3.000        400.83	    21.932
   3.020        407.50	    22.113
   3.040        417.50	    22.383
   3.060        417.50	    22.383
   3.080        395.00	    21.772
   3.100        385.00	    21.494
   3.120        372.50	    21.142
   3.140        379.17	    21.331
   3.160        404.17	    22.023
   3.180        412.50	    22.249
   3.200        387.50	    21.564
   3.220        381.67	    21.401
   3.240        400.83	    21.932
   3.260        365.00	    20.928
   3.280        375.83	    21.237
   3.300        371.67	    21.119
   3.320        379.17	    21.331
   3.340        375.83	    21.237
   3.360        330.00	    19.900
   3.380        333.33	    20.000
   3.400        355.83	    20.664
   3.420        325.83	    19.774
   3.440        350.83	    20.518
   3.460        364.17	    20.905
   3.480        360.00	    20.785
   3.500        322.50	    19.672
   3.520        341.67	    20.248
   3.540        325.00	    19.748
   3.560        355.00	    20.640
   3.580        355.00	    20.640
   3.600        307.50	    19.209
   3.620        342.50	    20.273
   3.640        320.00	    19.596
   3.660        319.17	    19.570
   3.680        342.50	    20.273
   3.700        321.67	    19.647
   3.720        323.33	    19.698
   3.740        317.50	    19.519
   3.760        335.00	    20.050
   3.780        327.50	    19.824
   3.800        321.67	    19.647
   3.820        315.00	    19.442
   3.840        308.33	    19.235
   3.860        274.17	    18.138
   3.880        315.00	    19.442
   3.900        302.50	    19.053
   3.920        299.17	    18.947
   3.940        274.17	    18.138
   3.960        290.83	    18.682
   3.980        293.33	    18.762
   4.000        279.17	    18.303
   4.020        275.00	    18.166
   4.040        277.50	    18.248
   4.060        276.67	    18.221
   4.080        303.33	    19.079
   4.100        263.33	    17.776
   4.120        271.67	    18.055
   4.140        260.83	    17.692
   4.160        284.17	    18.466
   4.180        272.50	    18.083
   4.200        255.00	    17.493
   4.220        265.83	    17.861
   4.240        253.33	    17.436
   4.260        276.67	    18.221
   4.280        250.83	    17.349
   4.300        255.00	    17.493
   4.320        253.33	    17.436
   4.340        269.17	    17.972
   4.360        257.50	    17.578
   4.380        256.67	    17.550
   4.400        276.67	    18.221
   4.420        231.67	    16.673
   4.440        275.83	    18.193
   4.460        254.17	    17.464
   4.480        245.83	    17.176
   4.500        266.67	    17.889
   4.520        233.33	    16.733
   4.540        283.33	    18.439
   4.560        237.50	    16.882
   4.580        242.50	    17.059
   4.600        241.67	    17.029
   4.620        240.00	    16.971
   4.640        209.17	    15.843
   4.660        236.67	    16.852
   4.680        241.67	    17.029
   4.700        229.17	    16.583
   4.720        219.17	    16.217
   4.740        265.00	    17.833
   4.760        235.83	    16.823
   4.780        210.83	    15.906
   4.800        219.17	    16.217
   4.820        233.33	    16.733
   4.840        225.83	    16.462
   4.860        236.67	    16.852
   4.880        268.33	    17.944
   4.900        229.17	    16.583
   4.920        229.17	    16.583
   4.940        213.33	    16.000
   4.960        211.67	    15.937
   4.980        230.83	    16.643
   5.000        194.17	    15.264
   5.020        198.33	    15.427
   5.040        260.00	    17.664
   5.060        230.00	    16.613
   5.080        184.17	    14.866
   5.100        220.00	    16.248
   5.120        211.67	    15.937
   5.140        210.00	    15.875
   5.160        229.17	    16.583
   5.180        213.33	    16.000
   5.200        200.00	    15.492
   5.220        207.50	    15.780
   5.240        222.50	    16.340
   5.260        187.50	    15.000
   5.280        202.50	    15.588
   5.300        213.33	    16.000
   5.320        186.67	    14.967
   5.340        197.50	    15.395
   5.360        207.50	    15.780
   5.380        203.33	    15.620
   5.400        211.67	    15.937
   5.420        202.50	    15.588
   5.440        198.33	    15.427
   5.460        208.33	    15.811
   5.480        210.00	    15.875
   5.500        226.67	    16.492
   5.520        205.00	    15.684
   5.540        203.33	    15.620
   5.560        181.67	    14.765
   5.580        201.67	    15.556
   5.600        195.83	    15.330
   5.620        214.17	    16.031
   5.640        192.50	    15.199
   5.660        200.83	    15.524
   5.680        191.67	    15.166
   5.700        194.17	    15.264
   5.720        228.33	    16.553
   5.740        220.83	    16.279
   5.760        239.17	    16.941
   5.780        251.67	    17.378
   5.800        241.67	    17.029
   5.820        235.00	    16.793
   5.840        256.67	    17.550
   5.860        251.67	    17.378
   5.880        275.00	    18.166
   5.900        235.83	    16.823
   5.920        226.67	    16.492
   5.940        223.33	    16.371
   5.960        232.50	    16.703
   5.980        249.17	    17.292
   6.000        254.17	    17.464
   6.020        263.33	    17.776
   6.040        275.83	    18.193
   6.060        266.67	    17.889
   6.080        290.83	    18.682
   6.100        272.50	    18.083
   6.120        283.33	    18.439
   6.140        281.67	    18.385
   6.160        315.83	    19.468
   6.180        279.17	    18.303
   6.200        235.83	    16.823
   6.220        260.00	    17.664
   6.240        230.83	    16.643
   6.260        226.67	    16.492
   6.280        210.83	    15.906
   6.300        240.00	    16.971
   6.320        224.17	    16.401
   6.340        190.00	    15.100
   6.360        225.00	    16.432
   6.380        201.67	    15.556
   6.400        189.17	    15.067
   6.420        189.17	    15.067
   6.440        197.50	    15.395
   6.460        180.00	    14.697
   6.480        186.67	    14.967
   6.500        180.00	    14.697
   6.520        168.33	    14.213
   6.540        192.50	    15.199
   6.560        160.83	    13.892
   6.580        183.33	    14.832
   6.600        188.33	    15.033
   6.620        173.33	    14.422
   6.640        173.33	    14.422
   6.660        173.33	    14.422
   6.680        180.00	    14.697
   6.700        144.17	    13.153
   6.720        166.67	    14.142
   6.740        163.33	    14.000
   6.760        171.67	    14.353
   6.780        165.83	    14.107
   6.800        168.33	    14.213
   6.820        186.67	    14.967
   6.840        165.83	    14.107
   6.860        167.50	    14.177
   6.880        185.00	    14.900
   6.900        155.83	    13.675
   6.920        162.50	    13.964
   6.940        180.00	    14.697
   6.960        148.33	    13.342
   6.980        132.50	    12.610
   7.000        144.17	    13.153
   7.020        165.83	    14.107
   7.040        145.83	    13.229
   7.060        178.33	    14.629
   7.080        138.33	    12.884
   7.100        179.17	    14.663
   7.120        151.67	    13.491
   7.140        128.33	    12.410
   7.160        141.67	    13.038
   7.180        157.50	    13.748
   7.200        149.17	    13.379
   7.220        149.17	    13.379
   7.240        159.17	    13.820
   7.260        150.83	    13.454
   7.280        152.50	    13.528
   7.300        136.67	    12.806
   7.320        159.17	    13.820
   7.340        130.83	    12.530
   7.360        138.33	    12.884
   7.380        163.33	    14.000
   7.400        173.33	    14.422
   7.420        143.33	    13.115
   7.440        118.33	    11.916
   7.460        155.00	    13.638
   7.480        150.83	    13.454
   7.500        160.83	    13.892
   7.520        138.33	    12.884
   7.540        135.00	    12.728
   7.560        125.83	    12.288
   7.580        123.33	    12.166
   7.600        120.83	    12.042
   7.620        132.50	    12.610
   7.640        115.00	    11.747
   7.660        123.33	    12.166
   7.680        126.67	    12.329
   7.700        140.00	    12.961
   7.720        121.67	    12.083
   7.740        115.00	    11.747
   7.760        122.50	    12.124
   7.780        130.00	    12.490
   7.800        131.67	    12.570
   7.820        138.33	    12.884
   7.840        145.00	    13.191
   7.860        140.00	    12.961
   7.880        155.83	    13.675
   7.900        133.33	    12.649
   7.920        137.50	    12.845
   7.940        128.33	    12.410
   7.960        125.83	    12.288
   7.980        134.17	    12.689
   8.000        133.33	    12.649
   8.020        120.00	    12.000
   8.040        108.33	    11.402
   8.060        142.50	    13.077
   8.080        145.00	    13.191
   8.100        127.50	    12.369
   8.120        142.50	    13.077
   8.140        143.33	    13.115
   8.160        136.67	    12.806
   8.180        139.17	    12.923
   8.200        120.83	    12.042
   8.220        118.33	    11.916
   8.240        113.33	    11.662
   8.260        138.33	    12.884
   8.280        129.17	    12.450
   8.300        132.50	    12.610
   8.320        140.00	    12.961
   8.340        160.00	    13.856
   8.360        150.00	    13.416
   8.380        170.00	    14.283
   8.400        151.67	    13.491
   8.420        163.33	    14.000
   8.440        165.00	    14.071
   8.460        160.83	    13.892
   8.480        148.33	    13.342
   8.500        186.67	    14.967
   8.520        201.67	    15.556
   8.540        180.83	    14.731
   8.560        195.83	    15.330
   8.580        210.83	    15.906
   8.600        229.17	    16.583
   8.620        246.67	    17.205
   8.640        242.50	    17.059
   8.660        298.33	    18.921
   8.680        305.83	    19.157
   8.700        410.00	    22.181
   8.720        575.83	    26.287
   8.740        619.17	    27.258
   8.760        728.33	    29.563
   8.780        750.00	    30.000
   8.800        618.33	    27.240
   8.820        491.67	    24.290
   8.840        377.50	    21.284
   8.860        277.50	    18.248
   8.880        209.17	    15.843
   8.900        198.33	    15.427
   8.920        196.67	    15.362
   8.940        162.50	    13.964
   8.960        157.50	    13.748
   8.980        162.50	    13.964
   9.000        177.50	    14.595
   9.020        185.00	    14.900
   9.040        166.67	    14.142
   9.060        140.83	    13.000
   9.080        155.83	    13.675
   9.100        153.33	    13.565
   9.120        121.67	    12.083
   9.140        130.83	    12.530
   9.160        102.50	    11.091
   9.180        115.00	    11.747
   9.200        107.50	    11.358
   9.220        118.33	    11.916
   9.240        119.17	    11.958
   9.260        105.83	    11.269
   9.280        108.33	    11.402
   9.300        114.17	    11.705
   9.320        116.67	    11.832
   9.340        127.50	    12.369
   9.360        110.83	    11.533
   9.380        125.83	    12.288
   9.400        123.33	    12.166
   9.420        105.83	    11.269
   9.440        114.17	    11.705
   9.460        100.83	    11.000
   9.480        103.33	    11.136
   9.500         98.33	    10.863
   9.520        105.83	    11.269
   9.540        117.50	    11.874
   9.560         85.83	    10.149
   9.580        106.67	    11.314
   9.600         91.67	    10.488
   9.620        115.83	    11.790
   9.640        126.67	    12.329
   9.660         83.33	    10.000
   9.680        102.50	    11.091
   9.700         88.33	    10.296
   9.720        122.50	    12.124
   9.740         98.33	    10.863
   9.760        113.33	    11.662
   9.780        105.83	    11.269
   9.800         87.50	    10.247
   9.820         98.33	    10.863
   9.840         94.17	    10.630
   9.860        100.83	    11.000
   9.880         87.50	    10.247
   9.900         98.33	    10.863
   9.920         86.67	    10.198
   9.940         97.50	    10.817
   9.960         91.67	    10.488
   9.980         87.50	    10.247
  10.000        110.00	    11.489
  10.020         87.50	    10.247
  10.040         95.83	    10.724
  10.060         92.50	    10.536
  10.080        100.83	    11.000
  10.100         88.33	    10.296
  10.120         92.50	    10.536
  10.140         98.33	    10.863
  10.160         84.17	    10.050
  10.180         83.33	    10.000
  10.200        110.00	    11.489
  10.220        114.17	    11.705
  10.240        117.50	    11.874
  10.260         91.67	    10.488
  10.280        105.83	    11.269
  10.300        113.33	    11.662
  10.320        100.83	    11.000
  10.340        117.50	    11.874
  10.360        123.33	    12.166
  10.380        129.17	    12.450
  10.400        160.00	    13.856
  10.420        139.17	    12.923
  10.440        155.83	    13.675
  10.460        133.33	    12.649
  10.480        107.50	    11.358
  10.500         91.67	    10.488
  10.520         95.83	    10.724
  10.540        112.50	    11.619
  10.560        100.00	    10.954
  10.580         81.67	     9.899
  10.600        103.33	    11.136
  10.620         94.17	    10.630
  10.640         83.33	    10.000
  10.660         99.17	    10.909
  10.680         93.33	    10.583
  10.700         93.33	    10.583
  10.720         92.50	    10.536
  10.740         97.50	    10.817
  10.760         84.17	    10.050
  10.780         58.33	     8.367
  10.800         78.33	     9.695
  10.820         93.33	    10.583
  10.840         85.83	    10.149
  10.860         89.17	    10.344
  10.880         96.67	    10.770
  10.900         95.83	    10.724
  10.920        101.67	    11.045
  10.940         92.50	    10.536
  10.960         76.67	     9.592
  10.980         87.50	    10.247
  11.000        100.00	    10.954
  11.020         90.83	    10.440
  11.040         81.67	     9.899
  11.060         88.33	    10.296
  11.080         95.00	    10.677
  11.100         67.50	     9.000
  11.120         92.50	    10.536
  11.140         82.50	     9.950
  11.160        101.67	    11.045
  11.180         86.67	    10.198
  11.200         93.33	    10.583
  11.220         84.17	    10.050
  11.240        101.67	    11.045
  11.260         76.67	     9.592
  11.280         85.00	    10.100
  11.300         92.50	    10.536
  11.320         80.83	     9.849
  11.340         84.17	    10.050
  11.360         86.67	    10.198
  11.380         87.50	    10.247
  11.400         84.17	    10.050
  11.420         85.00	    10.100
  11.440         85.00	    10.100
  11.460        102.50	    11.091
  11.480         67.50	     9.000
  11.500         64.17	     8.775
  11.520         91.67	    10.488
  11.540         75.83	     9.539
  11.560         79.17	     9.747
  11.580         77.50	     9.644
  11.600         82.50	     9.950
  11.620         82.50	     9.950
  11.640         85.83	    10.149
  11.660         97.50	    10.817
  11.680         70.00	     9.165
  11.700         97.50	    10.817
  11.720         92.50	    10.536
  11.740        105.00	    11.225
  11.760        113.33	    11.662
  11.780        104.17	    11.180
  11.800         88.33	    10.296
  11.820        115.83	    11.790
  11.840        125.83	    12.288
  11.860        114.17	    11.705
  11.880        103.33	    11.136
  11.900         95.83	    10.724
  11.920         90.83	    10.440
  11.940        103.33	    11.136
  11.960        112.50	    11.619
  11.980        119.17	    11.958
  12.000        153.33	    13.565
  12.020        223.33	    16.371
  12.040        235.83	    16.823
  12.060        224.17	    16.401
  12.080        230.00	    16.613
  12.100        245.83	    17.176
  12.120        263.33	    17.776
  12.140        227.50	    16.523
  12.160        194.17	    15.264
  12.180        155.00	    13.638
  12.200        173.33	    14.422
  12.220        149.17	    13.379
  12.240        167.50	    14.177
  12.260        164.17	    14.036
  12.280        153.33	    13.565
  12.300        164.17	    14.036
  12.320        196.67	    15.362
  12.340        220.00	    16.248
  12.360        276.67	    18.221
  12.380        315.00	    19.442
  12.400        317.50	    19.519
