
Filename:
	C:\Program Files\Thermo Electron\WinXRD\Datafiles\F_HERMAN\FIEN\G28_RT.raw

File Created:
	January 30, 2020 - 02:25 PM

Specimen Id:
	G28 RT

Specimen Name:
	

Specimen Description:
	

Comment:
Scan Type: 2Theta Scan
Start Angle: 3 deg.
Stop Angle: 65 deg.
Num Points: 3101
Step Size: 0.02 deg.
Scan Rate: 1.000000
Scan Mode: Continuous
Wavelength: 1.540562
\Kalpha1: 1.540562	\Kalpha2: 1.544390	\Kbeta: 1.392218

Optics:
		Detector:
			 Type: Fixed Slits
		Tube: 
			 Type: Fixed Slits


Datas:
 Pos [deg]       Rate [CPS]      ESD [-]

Range 1 ---> Iteration 1
   3.000        453.33	    23.324
   3.020        479.17	    23.979
   3.040        450.00	    23.238
   3.060        424.17	    22.561
   3.080        430.83	    22.738
   3.100        452.50	    23.302
   3.120        445.00	    23.108
   3.140        399.17	    21.886
   3.160        450.00	    23.238
   3.180        420.83	    22.472
   3.200        420.00	    22.450
   3.220        435.83	    22.869
   3.240        460.00	    23.495
   3.260        400.83	    21.932
   3.280        396.67	    21.817
   3.300        377.50	    21.284
   3.320        401.67	    21.954
   3.340        369.17	    21.048
   3.360        384.17	    21.471
   3.380        413.33	    22.271
   3.400        387.50	    21.564
   3.420        381.67	    21.401
   3.440        370.83	    21.095
   3.460        415.83	    22.338
   3.480        391.67	    21.679
   3.500        349.17	    20.469
   3.520        361.67	    20.833
   3.540        375.83	    21.237
   3.560        396.67	    21.817
   3.580        369.17	    21.048
   3.600        363.33	    20.881
   3.620        353.33	    20.591
   3.640        353.33	    20.591
   3.660        339.17	    20.174
   3.680        335.83	    20.075
   3.700        380.00	    21.354
   3.720        341.67	    20.248
   3.740        370.83	    21.095
   3.760        350.83	    20.518
   3.780        343.33	    20.298
   3.800        340.83	    20.224
   3.820        333.33	    20.000
   3.840        305.83	    19.157
   3.860        332.50	    19.975
   3.880        357.50	    20.712
   3.900        287.50	    18.574
   3.920        299.17	    18.947
   3.940        337.50	    20.125
   3.960        341.67	    20.248
   3.980        321.67	    19.647
   4.000        347.50	    20.421
   4.020        319.17	    19.570
   4.040        336.67	    20.100
   4.060        314.17	    19.416
   4.080        326.67	    19.799
   4.100        322.50	    19.672
   4.120        328.33	    19.849
   4.140        331.67	    19.950
   4.160        324.17	    19.723
   4.180        335.83	    20.075
   4.200        321.67	    19.647
   4.220        291.67	    18.708
   4.240        310.00	    19.287
   4.260        323.33	    19.698
   4.280        305.83	    19.157
   4.300        307.50	    19.209
   4.320        289.17	    18.628
   4.340        312.50	    19.365
   4.360        312.50	    19.365
   4.380        315.83	    19.468
   4.400        300.83	    19.000
   4.420        255.83	    17.521
   4.440        258.33	    17.607
   4.460        290.00	    18.655
   4.480        281.67	    18.385
   4.500        260.83	    17.692
   4.520        286.67	    18.547
   4.540        296.67	    18.868
   4.560        280.00	    18.330
   4.580        287.50	    18.574
   4.600        266.67	    17.889
   4.620        265.00	    17.833
   4.640        297.50	    18.894
   4.660        281.67	    18.385
   4.680        245.00	    17.146
   4.700        275.83	    18.193
   4.720        256.67	    17.550
   4.740        255.00	    17.493
   4.760        303.33	    19.079
   4.780        273.33	    18.111
   4.800        256.67	    17.550
   4.820        283.33	    18.439
   4.840        263.33	    17.776
   4.860        265.00	    17.833
   4.880        265.00	    17.833
   4.900        261.67	    17.720
   4.920        254.17	    17.464
   4.940        241.67	    17.029
   4.960        235.83	    16.823
   4.980        257.50	    17.578
   5.000        257.50	    17.578
   5.020        227.50	    16.523
   5.040        219.17	    16.217
   5.060        225.00	    16.432
   5.080        227.50	    16.523
   5.100        227.50	    16.523
   5.120        231.67	    16.673
   5.140        249.17	    17.292
   5.160        225.83	    16.462
   5.180        222.50	    16.340
   5.200        220.00	    16.248
   5.220        243.33	    17.088
   5.240        225.00	    16.432
   5.260        251.67	    17.378
   5.280        240.83	    17.000
   5.300        239.17	    16.941
   5.320        226.67	    16.492
   5.340        243.33	    17.088
   5.360        237.50	    16.882
   5.380        220.00	    16.248
   5.400        213.33	    16.000
   5.420        240.00	    16.971
   5.440        270.00	    18.000
   5.460        239.17	    16.941
   5.480        217.50	    16.155
   5.500        231.67	    16.673
   5.520        249.17	    17.292
   5.540        241.67	    17.029
   5.560        199.17	    15.460
   5.580        233.33	    16.733
   5.600        216.67	    16.125
   5.620        195.83	    15.330
   5.640        220.83	    16.279
   5.660        249.17	    17.292
   5.680        216.67	    16.125
   5.700        242.50	    17.059
   5.720        226.67	    16.492
   5.740        232.50	    16.703
   5.760        211.67	    15.937
   5.780        279.17	    18.303
   5.800        260.83	    17.692
   5.820        276.67	    18.221
   5.840        250.83	    17.349
   5.860        325.83	    19.774
   5.880        333.33	    20.000
   5.900        334.17	    20.025
   5.920        297.50	    18.894
   5.940        303.33	    19.079
   5.960        290.83	    18.682
   5.980        250.83	    17.349
   6.000        262.50	    17.748
   6.020        280.83	    18.358
   6.040        295.83	    18.841
   6.060        244.17	    17.117
   6.080        250.00	    17.321
   6.100        283.33	    18.439
   6.120        305.00	    19.131
   6.140        283.33	    18.439
   6.160        307.50	    19.209
   6.180        255.00	    17.493
   6.200        237.50	    16.882
   6.220        220.83	    16.279
   6.240        223.33	    16.371
   6.260        237.50	    16.882
   6.280        208.33	    15.811
   6.300        189.17	    15.067
   6.320        223.33	    16.371
   6.340        198.33	    15.427
   6.360        207.50	    15.780
   6.380        212.50	    15.969
   6.400        178.33	    14.629
   6.420        220.00	    16.248
   6.440        190.83	    15.133
   6.460        199.17	    15.460
   6.480        206.67	    15.748
   6.500        187.50	    15.000
   6.520        189.17	    15.067
   6.540        174.17	    14.457
   6.560        179.17	    14.663
   6.580        191.67	    15.166
   6.600        198.33	    15.427
   6.620        194.17	    15.264
   6.640        207.50	    15.780
   6.660        190.83	    15.133
   6.680        182.50	    14.799
   6.700        185.83	    14.933
   6.720        186.67	    14.967
   6.740        199.17	    15.460
   6.760        196.67	    15.362
   6.780        180.00	    14.697
   6.800        210.83	    15.906
   6.820        182.50	    14.799
   6.840        196.67	    15.362
   6.860        210.00	    15.875
   6.880        202.50	    15.588
   6.900        175.83	    14.526
   6.920        179.17	    14.663
   6.940        184.17	    14.866
   6.960        186.67	    14.967
   6.980        159.17	    13.820
   7.000        198.33	    15.427
   7.020        188.33	    15.033
   7.040        160.83	    13.892
   7.060        163.33	    14.000
   7.080        171.67	    14.353
   7.100        158.33	    13.784
   7.120        196.67	    15.362
   7.140        155.00	    13.638
   7.160        193.33	    15.232
   7.180        179.17	    14.663
   7.200        157.50	    13.748
   7.220        165.83	    14.107
   7.240        167.50	    14.177
   7.260        180.83	    14.731
   7.280        178.33	    14.629
   7.300        171.67	    14.353
   7.320        166.67	    14.142
   7.340        160.00	    13.856
   7.360        185.83	    14.933
   7.380        150.00	    13.416
   7.400        162.50	    13.964
   7.420        167.50	    14.177
   7.440        152.50	    13.528
   7.460        159.17	    13.820
   7.480        157.50	    13.748
   7.500        148.33	    13.342
   7.520        174.17	    14.457
   7.540        170.83	    14.318
   7.560        161.67	    13.928
   7.580        157.50	    13.748
   7.600        144.17	    13.153
   7.620        167.50	    14.177
   7.640        165.83	    14.107
   7.660        149.17	    13.379
   7.680        151.67	    13.491
   7.700        159.17	    13.820
   7.720        164.17	    14.036
   7.740        150.83	    13.454
   7.760        148.33	    13.342
   7.780        148.33	    13.342
   7.800        161.67	    13.928
   7.820        160.00	    13.856
   7.840        156.67	    13.711
   7.860        143.33	    13.115
   7.880        160.00	    13.856
   7.900        150.00	    13.416
   7.920        157.50	    13.748
   7.940        169.17	    14.248
   7.960        145.00	    13.191
   7.980        162.50	    13.964
   8.000        141.67	    13.038
   8.020        129.17	    12.450
   8.040        161.67	    13.928
   8.060        146.67	    13.266
   8.080        160.83	    13.892
   8.100        165.00	    14.071
   8.120        153.33	    13.565
   8.140        164.17	    14.036
   8.160        136.67	    12.806
   8.180        146.67	    13.266
   8.200        147.50	    13.304
   8.220        145.83	    13.229
   8.240        155.00	    13.638
   8.260        174.17	    14.457
   8.280        172.50	    14.387
   8.300        165.83	    14.107
   8.320        145.83	    13.229
   8.340        163.33	    14.000
   8.360        150.00	    13.416
   8.380        153.33	    13.565
   8.400        176.67	    14.560
   8.420        180.00	    14.697
   8.440        180.00	    14.697
   8.460        175.00	    14.491
   8.480        160.83	    13.892
   8.500        189.17	    15.067
   8.520        171.67	    14.353
   8.540        170.00	    14.283
   8.560        185.00	    14.900
   8.580        195.83	    15.330
   8.600        211.67	    15.937
   8.620        221.67	    16.310
   8.640        236.67	    16.852
   8.660        257.50	    17.578
   8.680        296.67	    18.868
   8.700        300.00	    18.974
   8.720        337.50	    20.125
   8.740        450.83	    23.259
   8.760        555.83	    25.826
   8.780        706.67	    29.120
   8.800        820.00	    31.369
   8.820        637.50	    27.659
   8.840        485.83	    24.145
   8.860        266.67	    17.889
   8.880        208.33	    15.811
   8.900        151.67	    13.491
   8.920        154.17	    13.601
   8.940        141.67	    13.038
   8.960        152.50	    13.528
   8.980        156.67	    13.711
   9.000        156.67	    13.711
   9.020        150.00	    13.416
   9.040        145.00	    13.191
   9.060        148.33	    13.342
   9.080        157.50	    13.748
   9.100        168.33	    14.213
   9.120        162.50	    13.964
   9.140        160.83	    13.892
   9.160        122.50	    12.124
   9.180        135.00	    12.728
   9.200        140.00	    12.961
   9.220        148.33	    13.342
   9.240        119.17	    11.958
   9.260        145.83	    13.229
   9.280        135.00	    12.728
   9.300        130.00	    12.490
   9.320        148.33	    13.342
   9.340        155.00	    13.638
   9.360        145.83	    13.229
   9.380        135.83	    12.767
   9.400        144.17	    13.153
   9.420        127.50	    12.369
   9.440        135.00	    12.728
   9.460        128.33	    12.410
   9.480        129.17	    12.450
   9.500        115.00	    11.747
   9.520        128.33	    12.410
   9.540        128.33	    12.410
   9.560        132.50	    12.610
   9.580        119.17	    11.958
   9.600        135.83	    12.767
   9.620        114.17	    11.705
   9.640        114.17	    11.705
   9.660        125.00	    12.247
   9.680        118.33	    11.916
   9.700        130.00	    12.490
   9.720        131.67	    12.570
   9.740        143.33	    13.115
   9.760        110.83	    11.533
   9.780        121.67	    12.083
   9.800        115.00	    11.747
   9.820        118.33	    11.916
   9.840        115.83	    11.790
   9.860        100.00	    10.954
   9.880        102.50	    11.091
   9.900        116.67	    11.832
   9.920        120.83	    12.042
   9.940        110.83	    11.533
   9.960        118.33	    11.916
   9.980        115.00	    11.747
  10.000        115.00	    11.747
  10.020        127.50	    12.369
  10.040        101.67	    11.045
  10.060        115.00	    11.747
  10.080        120.83	    12.042
  10.100        122.50	    12.124
  10.120        110.83	    11.533
  10.140        109.17	    11.446
  10.160        106.67	    11.314
  10.180        112.50	    11.619
  10.200        119.17	    11.958
  10.220        116.67	    11.832
  10.240        110.00	    11.489
  10.260        109.17	    11.446
  10.280        121.67	    12.083
  10.300        106.67	    11.314
  10.320        138.33	    12.884
  10.340        112.50	    11.619
  10.360        136.67	    12.806
  10.380        103.33	    11.136
  10.400        125.83	    12.288
  10.420        130.83	    12.530
  10.440        130.83	    12.530
  10.460        151.67	    13.491
  10.480        121.67	    12.083
  10.500        111.67	    11.576
  10.520        135.83	    12.767
  10.540        123.33	    12.166
  10.560        107.50	    11.358
  10.580        105.83	    11.269
  10.600        105.00	    11.225
  10.620        103.33	    11.136
  10.640        125.00	    12.247
  10.660        101.67	    11.045
  10.680         77.50	     9.644
  10.700        112.50	    11.619
  10.720        113.33	    11.662
  10.740        110.00	    11.489
  10.760        100.00	    10.954
  10.780        100.83	    11.000
  10.800         73.33	     9.381
  10.820        107.50	    11.358
  10.840        100.00	    10.954
  10.860         98.33	    10.863
  10.880        101.67	    11.045
  10.900        109.17	    11.446
  10.920        106.67	    11.314
  10.940         86.67	    10.198
  10.960        108.33	    11.402
  10.980        102.50	    11.091
  11.000        105.83	    11.269
  11.020        103.33	    11.136
  11.040         96.67	    10.770
  11.060        102.50	    11.091
  11.080        101.67	    11.045
  11.100         97.50	    10.817
  11.120        105.00	    11.225
  11.140         92.50	    10.536
  11.160        100.00	    10.954
  11.180        110.83	    11.533
  11.200        101.67	    11.045
  11.220        115.83	    11.790
  11.240         90.83	    10.440
  11.260         87.50	    10.247
  11.280        105.83	    11.269
  11.300        103.33	    11.136
  11.320        103.33	    11.136
  11.340        105.00	    11.225
  11.360         90.00	    10.392
  11.380         92.50	    10.536
  11.400        105.00	    11.225
  11.420        109.17	    11.446
  11.440         86.67	    10.198
  11.460         97.50	    10.817
  11.480         99.17	    10.909
  11.500         82.50	     9.950
  11.520        107.50	    11.358
  11.540        115.83	    11.790
  11.560         92.50	    10.536
  11.580        118.33	    11.916
  11.600        100.83	    11.000
  11.620        100.83	    11.000
  11.640         90.83	    10.440
  11.660        107.50	    11.358
  11.680         97.50	    10.817
  11.700        101.67	    11.045
  11.720         94.17	    10.630
  11.740         91.67	    10.488
  11.760        101.67	    11.045
  11.780         93.33	    10.583
  11.800         93.33	    10.583
  11.820         91.67	    10.488
  11.840        112.50	    11.619
  11.860        100.83	    11.000
  11.880        106.67	    11.314
  11.900        130.83	    12.530
  11.920        127.50	    12.369
  11.940        120.00	    12.000
  11.960        119.17	    11.958
  11.980        116.67	    11.832
  12.000        133.33	    12.649
  12.020        146.67	    13.266
  12.040        147.50	    13.304
  12.060        202.50	    15.588
  12.080        267.50	    17.916
  12.100        291.67	    18.708
  12.120        295.83	    18.841
  12.140        221.67	    16.310
  12.160        195.00	    15.297
  12.180        164.17	    14.036
  12.200        155.00	    13.638
  12.220        170.83	    14.318
  12.240        165.00	    14.071
  12.260        177.50	    14.595
  12.280        161.67	    13.928
  12.300        155.83	    13.675
  12.320        193.33	    15.232
  12.340        196.67	    15.362
  12.360        228.33	    16.553
  12.380        295.83	    18.841
  12.400        373.33	    21.166
  12.420        360.83	    20.809
  12.440        300.00	    18.974
  12.460        245.83	    17.176
  12.480        170.83	    14.318
  12.500        128.33	    12.410
  12.520         93.33	    10.583
  12.540         99.17	    10.909
  12.560         98.33	    10.863
  12.580        107.50	    11.358
  12.600         93.33	    10.583
  12.620         94.17	    10.630
  12.640         88.33	    10.296
  12.660         95.00	    10.677
  12.680         96.67	    10.770
  12.700         98.33	    10.863
  12.720         83.33	    10.000
  12.740        102.50	    11.091
  12.760         93.33	    10.583
  12.780         87.50	    10.247
  12.800         78.33	     9.695
  12.820         91.67	    10.488
  12.840         84.17	    10.050
  12.860        101.67	    11.045
  12.880         82.50	     9.950
  12.900         79.17	     9.747
  12.920        103.33	    11.136
  12.940         94.17	    10.630
  12.960         87.50	    10.247
  12.980         80.00	     9.798
  13.000         88.33	    10.296
  13.020         79.17	     9.747
  13.040         70.00	     9.165
  13.060         89.17	    10.344
  13.080         70.00	     9.165
  13.100         84.17	    10.050
  13.120         82.50	     9.950
  13.140         92.50	    10.536
  13.160         90.83	    10.440
  13.180         77.50	     9.644
  13.200         91.67	    10.488
  13.220         71.67	     9.274
  13.240         92.50	    10.536
  13.260         91.67	    10.488
  13.280         90.00	    10.392
  13.300         79.17	     9.747
  13.320         65.00	     8.832
  13.340         76.67	     9.592
  13.360         75.83	     9.539
  13.380         90.83	    10.440
  13.400         94.17	    10.630
  13.420         87.50	    10.247
  13.440         90.83	    10.440
  13.460         80.83	     9.849
  13.480         80.00	     9.798
  13.500         91.67	    10.488
  13.520         85.83	    10.149
  13.540         84.17	    10.050
  13.560         80.00	     9.798
  13.580         85.83	    10.149
  13.600         57.50	     8.307
  13.620         81.67	     9.899
  13.640         91.67	    10.488
  13.660         84.17	    10.050
  13.680         76.67	     9.592
  13.700         89.17	    10.344
  13.720        100.00	    10.954
  13.740        100.83	    11.000
  13.760        126.67	    12.329
  13.780         92.50	    10.536
  13.800        104.17	    11.180
  13.820        105.00	    11.225
  13.840         96.67	    10.770
  13.860         95.00	    10.677
  13.880         78.33	     9.695
  13.900         83.33	    10.000
  13.920         77.50	     9.644
  13.940         91.67	    10.488
  13.960         92.50	    10.536
  13.980         77.50	     9.644
  14.000         79.17	     9.747
  14.020         78.33	     9.695
  14.040         75.83	     9.539
  14.060         72.50	     9.327
  14.080         80.00	     9.798
  14.100         95.00	    10.677
  14.120         68.33	     9.055
  14.140         70.83	     9.220
  14.160         76.67	     9.592
  14.180         60.00	     8.485
  14.200         70.00	     9.165
  14.220         76.67	     9.592
  14.240         73.33	     9.381
  14.260         63.33	     8.718
  14.280         67.50	     9.000
  14.300         63.33	     8.718
  14.320         80.00	     9.798
  14.340         67.50	     9.000
  14.360         72.50	     9.327
  14.380         83.33	    10.000
  14.400         69.17	     9.110
