
Filename:
	C:\Program Files\Thermo Electron\WinXRD\Datafiles\F_HERMAN\FIEN\G29_FT.raw

File Created:
	October 09, 2019 - 07:45 AM

Specimen Id:
	G29  FT RT

Specimen Name:
	

Specimen Description:
	

Comment:
Scan Type: 2Theta Scan
Start Angle: 2 deg.
Stop Angle: 65 deg.
Num Points: 3151
Step Size: 0.02 deg.
Scan Rate: 1.000000
Scan Mode: Continuous
Wavelength: 1.540562
\Kalpha1: 1.540562	\Kalpha2: 1.544390	\Kbeta: 1.392218

Optics:
		Detector:
			 Type: Fixed Slits
		Tube: 
			 Type: Fixed Slits


Datas:
 Pos [deg]       Rate [CPS]      ESD [-]

Range 1 ---> Iteration 1
   2.000        937.50	    33.541
   2.020        930.00	    33.407
   2.040        858.33	    32.094
   2.060        895.83	    32.787
   2.080        948.33	    33.734
   2.100        810.00	    31.177
   2.120        814.17	    31.257
   2.140        807.50	    31.129
   2.160        864.17	    32.202
   2.180        821.67	    31.401
   2.200        818.33	    31.337
   2.220        820.83	    31.385
   2.240        756.67	    30.133
   2.260        762.50	    30.249
   2.280        760.00	    30.199
   2.300        752.50	    30.050
   2.320        766.67	    30.332
   2.340        740.00	    29.799
   2.360        738.33	    29.766
   2.380        730.83	    29.614
   2.400        746.67	    29.933
   2.420        717.50	    29.343
   2.440        695.00	    28.879
   2.460        719.17	    29.377
   2.480        703.33	    29.052
   2.500        638.33	    27.677
   2.520        667.50	    28.302
   2.540        682.50	    28.618
   2.560        622.50	    27.331
   2.580        630.00	    27.495
   2.600        650.00	    27.928
   2.620        636.67	    27.641
   2.640        643.33	    27.785
   2.660        620.83	    27.295
   2.680        638.33	    27.677
   2.700        581.67	    26.420
   2.720        612.50	    27.111
   2.740        590.00	    26.608
   2.760        622.50	    27.331
   2.780        610.00	    27.055
   2.800        590.83	    26.627
   2.820        601.67	    26.870
   2.840        606.67	    26.981
   2.860        563.33	    26.000
   2.880        578.33	    26.344
   2.900        546.67	    25.612
   2.920        544.17	    25.554
   2.940        551.67	    25.729
   2.960        555.00	    25.807
   2.980        541.67	    25.495
   3.000        580.00	    26.382
   3.020        507.50	    24.678
   3.040        573.33	    26.230
   3.060        526.67	    25.140
   3.080        508.33	    24.698
   3.100        520.00	    24.980
   3.120        532.50	    25.278
   3.140        525.00	    25.100
   3.160        497.50	    24.434
   3.180        497.50	    24.434
   3.200        507.50	    24.678
   3.220        534.17	    25.318
   3.240        496.67	    24.413
   3.260        470.00	    23.749
   3.280        473.33	    23.833
   3.300        525.00	    25.100
   3.320        485.00	    24.125
   3.340        478.33	    23.958
   3.360        475.00	    23.875
   3.380        500.83	    24.515
   3.400        464.17	    23.601
   3.420        435.83	    22.869
   3.440        450.83	    23.259
   3.460        410.00	    22.181
   3.480        422.50	    22.517
   3.500        454.17	    23.345
   3.520        445.00	    23.108
   3.540        446.67	    23.152
   3.560        454.17	    23.345
   3.580        441.67	    23.022
   3.600        427.50	    22.650
   3.620        413.33	    22.271
   3.640        393.33	    21.726
   3.660        427.50	    22.650
   3.680        412.50	    22.249
   3.700        440.00	    22.978
   3.720        423.33	    22.539
   3.740        395.83	    21.794
   3.760        431.67	    22.760
   3.780        408.33	    22.136
   3.800        373.33	    21.166
   3.820        401.67	    21.954
   3.840        410.00	    22.181
   3.860        405.00	    22.045
   3.880        414.17	    22.293
   3.900        375.83	    21.237
   3.920        372.50	    21.142
   3.940        378.33	    21.307
   3.960        384.17	    21.471
   3.980        397.50	    21.840
   4.000        372.50	    21.142
   4.020        390.83	    21.656
   4.040        373.33	    21.166
   4.060        379.17	    21.331
   4.080        394.17	    21.749
   4.100        370.00	    21.071
   4.120        350.00	    20.494
   4.140        374.17	    21.190
   4.160        383.33	    21.448
   4.180        354.17	    20.616
   4.200        354.17	    20.616
   4.220        378.33	    21.307
   4.240        378.33	    21.307
   4.260        323.33	    19.698
   4.280        338.33	    20.149
   4.300        333.33	    20.000
   4.320        350.00	    20.494
   4.340        344.17	    20.322
   4.360        355.83	    20.664
   4.380        372.50	    21.142
   4.400        331.67	    19.950
   4.420        351.67	    20.543
   4.440        334.17	    20.025
   4.460        345.00	    20.347
   4.480        345.00	    20.347
   4.500        324.17	    19.723
   4.520        355.83	    20.664
   4.540        321.67	    19.647
   4.560        330.83	    19.925
   4.580        360.00	    20.785
   4.600        318.33	    19.545
   4.620        345.00	    20.347
   4.640        305.83	    19.157
   4.660        290.83	    18.682
   4.680        300.83	    19.000
   4.700        315.83	    19.468
   4.720        322.50	    19.672
   4.740        310.83	    19.313
   4.760        331.67	    19.950
   4.780        330.00	    19.900
   4.800        309.17	    19.261
   4.820        317.50	    19.519
   4.840        310.83	    19.313
   4.860        306.67	    19.183
   4.880        330.83	    19.925
   4.900        306.67	    19.183
   4.920        287.50	    18.574
   4.940        309.17	    19.261
   4.960        320.83	    19.621
   4.980        285.83	    18.520
   5.000        272.50	    18.083
   5.020        269.17	    17.972
   5.040        310.00	    19.287
   5.060        305.00	    19.131
   5.080        291.67	    18.708
   5.100        307.50	    19.209
   5.120        305.00	    19.131
   5.140        272.50	    18.083
   5.160        263.33	    17.776
   5.180        285.83	    18.520
   5.200        275.00	    18.166
   5.220        295.00	    18.815
   5.240        268.33	    17.944
   5.260        299.17	    18.947
   5.280        285.83	    18.520
   5.300        293.33	    18.762
   5.320        295.83	    18.841
   5.340        299.17	    18.947
   5.360        255.00	    17.493
   5.380        292.50	    18.735
   5.400        301.67	    19.026
   5.420        285.83	    18.520
   5.440        290.00	    18.655
   5.460        295.83	    18.841
   5.480        286.67	    18.547
   5.500        293.33	    18.762
   5.520        296.67	    18.868
   5.540        343.33	    20.298
   5.560        323.33	    19.698
   5.580        365.00	    20.928
   5.600        371.67	    21.119
   5.620        406.67	    22.091
   5.640        416.67	    22.361
   5.660        412.50	    22.249
   5.680        475.00	    23.875
   5.700        521.67	    25.020
   5.720        583.33	    26.458
   5.740        657.50	    28.089
   5.760        756.67	    30.133
   5.780        770.83	    30.414
   5.800        731.67	    29.631
   5.820        626.67	    27.423
   5.840        488.33	    24.207
   5.860        474.17	    23.854
   5.880        486.67	    24.166
   5.900        415.83	    22.338
   5.920        424.17	    22.561
   5.940        401.67	    21.954
   5.960        438.33	    22.935
   5.980        494.17	    24.352
   6.000        487.50	    24.187
   6.020        545.00	    25.573
   6.040        548.33	    25.652
   6.060        632.50	    27.550
   6.080        677.50	    28.513
   6.100        745.83	    29.917
   6.120        548.33	    25.652
   6.140        395.83	    21.794
   6.160        334.17	    20.025
   6.180        300.83	    19.000
   6.200        307.50	    19.209
   6.220        279.17	    18.303
   6.240        271.67	    18.055
   6.260        247.50	    17.234
   6.280        274.17	    18.138
   6.300        255.83	    17.521
   6.320        255.83	    17.521
   6.340        277.50	    18.248
   6.360        269.17	    17.972
   6.380        256.67	    17.550
   6.400        268.33	    17.944
   6.420        247.50	    17.234
   6.440        268.33	    17.944
   6.460        245.83	    17.176
   6.480        257.50	    17.578
   6.500        239.17	    16.941
   6.520        255.83	    17.521
   6.540        238.33	    16.912
   6.560        236.67	    16.852
   6.580        240.00	    16.971
   6.600        242.50	    17.059
   6.620        230.83	    16.643
   6.640        249.17	    17.292
   6.660        219.17	    16.217
   6.680        250.83	    17.349
   6.700        226.67	    16.492
   6.720        235.83	    16.823
   6.740        251.67	    17.378
   6.760        222.50	    16.340
   6.780        225.83	    16.462
   6.800        238.33	    16.912
   6.820        220.00	    16.248
   6.840        215.00	    16.062
   6.860        225.83	    16.462
   6.880        239.17	    16.941
   6.900        220.00	    16.248
   6.920        250.83	    17.349
   6.940        225.00	    16.432
   6.960        221.67	    16.310
   6.980        208.33	    15.811
   7.000        246.67	    17.205
   7.020        195.83	    15.330
   7.040        214.17	    16.031
   7.060        225.00	    16.432
   7.080        188.33	    15.033
   7.100        231.67	    16.673
   7.120        222.50	    16.340
   7.140        220.83	    16.279
   7.160        213.33	    16.000
   7.180        207.50	    15.780
   7.200        218.33	    16.186
   7.220        178.33	    14.629
   7.240        204.17	    15.652
   7.260        196.67	    15.362
   7.280        165.83	    14.107
   7.300        203.33	    15.620
   7.320        206.67	    15.748
   7.340        167.50	    14.177
   7.360        219.17	    16.217
   7.380        183.33	    14.832
   7.400        214.17	    16.031
   7.420        188.33	    15.033
   7.440        217.50	    16.155
   7.460        186.67	    14.967
   7.480        201.67	    15.556
   7.500        172.50	    14.387
   7.520        185.00	    14.900
   7.540        212.50	    15.969
   7.560        189.17	    15.067
   7.580        180.83	    14.731
   7.600        186.67	    14.967
   7.620        195.00	    15.297
   7.640        205.00	    15.684
   7.660        188.33	    15.033
   7.680        177.50	    14.595
   7.700        179.17	    14.663
   7.720        190.83	    15.133
   7.740        185.83	    14.933
   7.760        185.00	    14.900
   7.780        180.00	    14.697
   7.800        174.17	    14.457
   7.820        190.00	    15.100
   7.840        208.33	    15.811
   7.860        162.50	    13.964
   7.880        188.33	    15.033
   7.900        196.67	    15.362
   7.920        188.33	    15.033
   7.940        197.50	    15.395
   7.960        190.00	    15.100
   7.980        185.00	    14.900
   8.000        186.67	    14.967
   8.020        189.17	    15.067
   8.040        194.17	    15.264
   8.060        195.83	    15.330
   8.080        219.17	    16.217
   8.100        175.00	    14.491
   8.120        194.17	    15.264
   8.140        191.67	    15.166
   8.160        207.50	    15.780
   8.180        210.83	    15.906
   8.200        213.33	    16.000
   8.220        210.00	    15.875
   8.240        201.67	    15.556
   8.260        203.33	    15.620
   8.280        218.33	    16.186
   8.300        252.50	    17.407
   8.320        230.83	    16.643
   8.340        244.17	    17.117
   8.360        255.83	    17.521
   8.380        256.67	    17.550
   8.400        265.00	    17.833
   8.420        282.50	    18.412
   8.440        285.83	    18.520
   8.460        314.17	    19.416
   8.480        356.67	    20.688
   8.500        380.83	    21.378
   8.520        448.33	    23.195
   8.540        515.00	    24.860
   8.560        610.83	    27.074
   8.580        602.50	    26.889
   8.600        672.50	    28.408
   8.620        784.17	    30.676
   8.640        876.67	    32.435
   8.660       1220.83	    38.275
   8.680       1819.17	    46.723
   8.700       2556.67	    55.390
   8.720       3507.50	    64.877
   8.740       3825.00	    67.750
   8.760       3069.17	    60.688
   8.780       1710.00	    45.299
   8.800        706.67	    29.120
   8.820        410.83	    22.204
   8.840        323.33	    19.698
   8.860        280.00	    18.330
   8.880        270.83	    18.028
   8.900        265.00	    17.833
   8.920        284.17	    18.466
   8.940        286.67	    18.547
   8.960        263.33	    17.776
   8.980        292.50	    18.735
   9.000        311.67	    19.339
   9.020        294.17	    18.788
   9.040        299.17	    18.947
   9.060        269.17	    17.972
   9.080        222.50	    16.340
   9.100        180.00	    14.697
   9.120        165.00	    14.071
   9.140        188.33	    15.033
   9.160        179.17	    14.663
   9.180        179.17	    14.663
   9.200        182.50	    14.799
   9.220        182.50	    14.799
   9.240        195.83	    15.330
   9.260        227.50	    16.523
   9.280        234.17	    16.763
   9.300        255.83	    17.521
   9.320        235.83	    16.823
   9.340        190.83	    15.133
   9.360        182.50	    14.799
   9.380        169.17	    14.248
   9.400        139.17	    12.923
   9.420        150.00	    13.416
   9.440        174.17	    14.457
   9.460        162.50	    13.964
   9.480        136.67	    12.806
   9.500        162.50	    13.964
   9.520        156.67	    13.711
   9.540        162.50	    13.964
   9.560        154.17	    13.601
   9.580        139.17	    12.923
   9.600        148.33	    13.342
   9.620        154.17	    13.601
   9.640        156.67	    13.711
   9.660        152.50	    13.528
   9.680        145.83	    13.229
   9.700        145.00	    13.191
   9.720        139.17	    12.923
   9.740        148.33	    13.342
   9.760        135.00	    12.728
   9.780        149.17	    13.379
   9.800        130.00	    12.490
   9.820        139.17	    12.923
   9.840        131.67	    12.570
   9.860        133.33	    12.649
   9.880        126.67	    12.329
   9.900        105.00	    11.225
   9.920        135.00	    12.728
   9.940        140.00	    12.961
   9.960        125.00	    12.247
   9.980        142.50	    13.077
  10.000        138.33	    12.884
  10.020        133.33	    12.649
  10.040        138.33	    12.884
  10.060        140.83	    13.000
  10.080        129.17	    12.450
  10.100        141.67	    13.038
  10.120        125.00	    12.247
  10.140        130.00	    12.490
  10.160        130.83	    12.530
  10.180        120.83	    12.042
  10.200        142.50	    13.077
  10.220        132.50	    12.610
  10.240        134.17	    12.689
  10.260        150.83	    13.454
  10.280        150.00	    13.416
  10.300        171.67	    14.353
  10.320        186.67	    14.967
  10.340        219.17	    16.217
  10.360        255.00	    17.493
  10.380        336.67	    20.100
  10.400        316.67	    19.494
  10.420        234.17	    16.763
  10.440        162.50	    13.964
  10.460        140.00	    12.961
  10.480        121.67	    12.083
  10.500        114.17	    11.705
  10.520        149.17	    13.379
  10.540        128.33	    12.410
  10.560        135.00	    12.728
  10.580        126.67	    12.329
  10.600        142.50	    13.077
  10.620        126.67	    12.329
  10.640        107.50	    11.358
  10.660        115.00	    11.747
  10.680        112.50	    11.619
  10.700        113.33	    11.662
  10.720        115.00	    11.747
  10.740        121.67	    12.083
  10.760        110.83	    11.533
  10.780        123.33	    12.166
  10.800        132.50	    12.610
  10.820        115.83	    11.790
  10.840        120.83	    12.042
  10.860        125.83	    12.288
  10.880         99.17	    10.909
  10.900        117.50	    11.874
  10.920        100.00	    10.954
  10.940        115.00	    11.747
  10.960        145.00	    13.191
  10.980        107.50	    11.358
  11.000        115.00	    11.747
  11.020         93.33	    10.583
  11.040        111.67	    11.576
  11.060        134.17	    12.689
  11.080        121.67	    12.083
  11.100        113.33	    11.662
  11.120        125.83	    12.288
  11.140        115.00	    11.747
  11.160        117.50	    11.874
  11.180        130.00	    12.490
  11.200        117.50	    11.874
  11.220        115.00	    11.747
  11.240        108.33	    11.402
  11.260        113.33	    11.662
  11.280        115.00	    11.747
  11.300        105.00	    11.225
  11.320        110.83	    11.533
  11.340        119.17	    11.958
  11.360        109.17	    11.446
  11.380        110.00	    11.489
  11.400        115.83	    11.790
  11.420        110.83	    11.533
  11.440        110.83	    11.533
  11.460        127.50	    12.369
  11.480        111.67	    11.576
  11.500        122.50	    12.124
  11.520        133.33	    12.649
  11.540        101.67	    11.045
  11.560        132.50	    12.610
  11.580        126.67	    12.329
  11.600        126.67	    12.329
  11.620        117.50	    11.874
  11.640        130.83	    12.530
  11.660        138.33	    12.884
  11.680        138.33	    12.884
  11.700        145.83	    13.229
  11.720        166.67	    14.142
  11.740        146.67	    13.266
  11.760        140.00	    12.961
  11.780        114.17	    11.705
  11.800        151.67	    13.491
  11.820        145.00	    13.191
  11.840        145.00	    13.191
  11.860        156.67	    13.711
  11.880        173.33	    14.422
  11.900        171.67	    14.353
  11.920        178.33	    14.629
  11.940        264.17	    17.804
  11.960        335.00	    20.050
  11.980        475.83	    23.896
  12.000        707.50	    29.138
  12.020        925.00	    33.317
  12.040        985.00	    34.380
  12.060        850.00	    31.937
  12.080        567.50	    26.096
  12.100        402.50	    21.977
  12.120        308.33	    19.235
  12.140        302.50	    19.053
  12.160        330.00	    19.900
  12.180        385.00	    21.494
  12.200        375.83	    21.237
  12.220        440.83	    23.000
  12.240        413.33	    22.271
  12.260        432.50	    22.782
  12.280        529.17	    25.199
  12.300        679.17	    28.548
  12.320        995.83	    34.569
  12.340       1387.50	    40.804
  12.360       1364.17	    40.460
  12.380       1056.67	    35.609
  12.400        663.33	    28.213
  12.420        310.83	    19.313
  12.440        215.83	    16.093
  12.460        160.00	    13.856
  12.480        164.17	    14.036
  12.500        144.17	    13.153
  12.520        145.00	    13.191
  12.540        143.33	    13.115
  12.560        124.17	    12.207
  12.580        127.50	    12.369
  12.600        109.17	    11.446
  12.620        125.83	    12.288
  12.640        119.17	    11.958
  12.660        105.00	    11.225
  12.680        110.00	    11.489
  12.700         86.67	    10.198
  12.720         85.00	    10.100
  12.740        102.50	    11.091
  12.760         85.00	    10.100
  12.780         97.50	    10.817
  12.800        109.17	    11.446
  12.820        112.50	    11.619
  12.840        105.83	    11.269
  12.860        102.50	    11.091
  12.880        103.33	    11.136
  12.900         90.83	    10.440
  12.920         97.50	    10.817
  12.940         90.83	    10.440
  12.960        111.67	    11.576
  12.980        110.00	    11.489
  13.000        100.00	    10.954
  13.020        104.17	    11.180
  13.040         96.67	    10.770
  13.060         95.00	    10.677
  13.080        106.67	    11.314
  13.100         98.33	    10.863
  13.120         96.67	    10.770
  13.140        105.83	    11.269
  13.160        115.83	    11.790
  13.180        103.33	    11.136
  13.200        104.17	    11.180
  13.220        109.17	    11.446
  13.240         76.67	     9.592
  13.260         92.50	    10.536
  13.280        115.83	    11.790
  13.300        100.00	    10.954
  13.320         83.33	    10.000
  13.340        101.67	    11.045
  13.360         95.83	    10.724
  13.380         82.50	     9.950
  13.400        100.83	    11.000
