
Filename:
	C:\Program Files\Thermo Electron\WinXRD\Datafiles\F_HERMAN\FIEN\G30_RT.raw

File Created:
	January 30, 2020 - 08:23 AM

Specimen Id:
	G30  RT GRINDED

Specimen Name:
	

Specimen Description:
	

Comment:
Scan Type: 2Theta Scan
Start Angle: 3 deg.
Stop Angle: 65 deg.
Num Points: 3101
Step Size: 0.02 deg.
Scan Rate: 1.000000
Scan Mode: Continuous
Wavelength: 1.540562
\Kalpha1: 1.540562	\Kalpha2: 1.544390	\Kbeta: 1.392218

Optics:
		Detector:
			 Type: Fixed Slits
		Tube: 
			 Type: Fixed Slits


Datas:
 Pos [deg]       Rate [CPS]      ESD [-]

Range 1 ---> Iteration 1
   3.000        422.50	    22.517
   3.020        434.17	    22.825
   3.040        445.83	    23.130
   3.060        438.33	    22.935
   3.080        418.33	    22.405
   3.100        433.33	    22.804
   3.120        472.50	    23.812
   3.140        395.83	    21.794
   3.160        420.83	    22.472
   3.180        414.17	    22.293
   3.200        421.67	    22.494
   3.220        426.67	    22.627
   3.240        430.00	    22.716
   3.260        415.00	    22.316
   3.280        406.67	    22.091
   3.300        407.50	    22.113
   3.320        387.50	    21.564
   3.340        403.33	    22.000
   3.360        360.83	    20.809
   3.380        410.83	    22.204
   3.400        365.83	    20.952
   3.420        398.33	    21.863
   3.440        410.00	    22.181
   3.460        412.50	    22.249
   3.480        380.83	    21.378
   3.500        354.17	    20.616
   3.520        384.17	    21.471
   3.540        386.67	    21.541
   3.560        358.33	    20.736
   3.580        386.67	    21.541
   3.600        378.33	    21.307
   3.620        381.67	    21.401
   3.640        325.00	    19.748
   3.660        375.00	    21.213
   3.680        395.00	    21.772
   3.700        366.67	    20.976
   3.720        365.83	    20.952
   3.740        360.00	    20.785
   3.760        315.83	    19.468
   3.780        357.50	    20.712
   3.800        359.17	    20.761
   3.820        305.83	    19.157
   3.840        345.00	    20.347
   3.860        331.67	    19.950
   3.880        309.17	    19.261
   3.900        335.00	    20.050
   3.920        325.83	    19.774
   3.940        320.83	    19.621
   3.960        326.67	    19.799
   3.980        327.50	    19.824
   4.000        336.67	    20.100
   4.020        312.50	    19.365
   4.040        286.67	    18.547
   4.060        338.33	    20.149
   4.080        309.17	    19.261
   4.100        300.00	    18.974
   4.120        327.50	    19.824
   4.140        305.83	    19.157
   4.160        296.67	    18.868
   4.180        299.17	    18.947
   4.200        301.67	    19.026
   4.220        290.83	    18.682
   4.240        315.83	    19.468
   4.260        290.83	    18.682
   4.280        316.67	    19.494
   4.300        264.17	    17.804
   4.320        305.00	    19.131
   4.340        294.17	    18.788
   4.360        307.50	    19.209
   4.380        305.83	    19.157
   4.400        285.83	    18.520
   4.420        288.33	    18.601
   4.440        252.50	    17.407
   4.460        285.83	    18.520
   4.480        273.33	    18.111
   4.500        305.00	    19.131
   4.520        242.50	    17.059
   4.540        260.00	    17.664
   4.560        277.50	    18.248
   4.580        285.00	    18.493
   4.600        278.33	    18.276
   4.620        270.83	    18.028
   4.640        274.17	    18.138
   4.660        272.50	    18.083
   4.680        259.17	    17.635
   4.700        265.83	    17.861
   4.720        261.67	    17.720
   4.740        240.83	    17.000
   4.760        279.17	    18.303
   4.780        250.00	    17.321
   4.800        242.50	    17.059
   4.820        278.33	    18.276
   4.840        218.33	    16.186
   4.860        252.50	    17.407
   4.880        255.83	    17.521
   4.900        236.67	    16.852
   4.920        240.00	    16.971
   4.940        241.67	    17.029
   4.960        271.67	    18.055
   4.980        252.50	    17.407
   5.000        220.83	    16.279
   5.020        265.83	    17.861
   5.040        251.67	    17.378
   5.060        247.50	    17.234
   5.080        265.83	    17.861
   5.100        234.17	    16.763
   5.120        240.00	    16.971
   5.140        243.33	    17.088
   5.160        239.17	    16.941
   5.180        257.50	    17.578
   5.200        254.17	    17.464
   5.220        248.33	    17.263
   5.240        258.33	    17.607
   5.260        229.17	    16.583
   5.280        208.33	    15.811
   5.300        230.83	    16.643
   5.320        230.83	    16.643
   5.340        239.17	    16.941
   5.360        255.83	    17.521
   5.380        221.67	    16.310
   5.400        218.33	    16.186
   5.420        210.83	    15.906
   5.440        204.17	    15.652
   5.460        231.67	    16.673
   5.480        219.17	    16.217
   5.500        230.83	    16.643
   5.520        197.50	    15.395
   5.540        219.17	    16.217
   5.560        218.33	    16.186
   5.580        229.17	    16.583
   5.600        225.00	    16.432
   5.620        251.67	    17.378
   5.640        234.17	    16.763
   5.660        225.83	    16.462
   5.680        253.33	    17.436
   5.700        220.00	    16.248
   5.720        213.33	    16.000
   5.740        226.67	    16.492
   5.760        224.17	    16.401
   5.780        248.33	    17.263
   5.800        231.67	    16.673
   5.820        256.67	    17.550
   5.840        242.50	    17.059
   5.860        292.50	    18.735
   5.880        309.17	    19.261
   5.900        316.67	    19.494
   5.920        295.83	    18.841
   5.940        285.00	    18.493
   5.960        254.17	    17.464
   5.980        257.50	    17.578
   6.000        260.83	    17.692
   6.020        249.17	    17.292
   6.040        253.33	    17.436
   6.060        235.83	    16.823
   6.080        260.00	    17.664
   6.100        232.50	    16.703
   6.120        262.50	    17.748
   6.140        288.33	    18.601
   6.160        248.33	    17.263
   6.180        255.00	    17.493
   6.200        232.50	    16.703
   6.220        210.00	    15.875
   6.240        182.50	    14.799
   6.260        214.17	    16.031
   6.280        200.83	    15.524
   6.300        210.00	    15.875
   6.320        228.33	    16.553
   6.340        222.50	    16.340
   6.360        198.33	    15.427
   6.380        205.83	    15.716
   6.400        190.00	    15.100
   6.420        190.00	    15.100
   6.440        203.33	    15.620
   6.460        190.00	    15.100
   6.480        186.67	    14.967
   6.500        181.67	    14.765
   6.520        176.67	    14.560
   6.540        210.00	    15.875
   6.560        182.50	    14.799
   6.580        167.50	    14.177
   6.600        200.83	    15.524
   6.620        182.50	    14.799
   6.640        155.00	    13.638
   6.660        195.00	    15.297
   6.680        165.83	    14.107
   6.700        199.17	    15.460
   6.720        170.00	    14.283
   6.740        195.83	    15.330
   6.760        170.83	    14.318
   6.780        168.33	    14.213
   6.800        175.83	    14.526
   6.820        193.33	    15.232
   6.840        175.00	    14.491
   6.860        160.00	    13.856
   6.880        175.00	    14.491
   6.900        161.67	    13.928
   6.920        160.00	    13.856
   6.940        175.00	    14.491
   6.960        180.83	    14.731
   6.980        162.50	    13.964
   7.000        155.00	    13.638
   7.020        165.00	    14.071
   7.040        170.83	    14.318
   7.060        196.67	    15.362
   7.080        191.67	    15.166
   7.100        155.00	    13.638
   7.120        163.33	    14.000
   7.140        177.50	    14.595
   7.160        156.67	    13.711
   7.180        166.67	    14.142
   7.200        150.83	    13.454
   7.220        164.17	    14.036
   7.240        170.00	    14.283
   7.260        175.00	    14.491
   7.280        160.00	    13.856
   7.300        147.50	    13.304
   7.320        175.00	    14.491
   7.340        157.50	    13.748
   7.360        157.50	    13.748
   7.380        175.00	    14.491
   7.400        170.00	    14.283
   7.420        155.00	    13.638
   7.440        155.83	    13.675
   7.460        162.50	    13.964
   7.480        155.83	    13.675
   7.500        144.17	    13.153
   7.520        142.50	    13.077
   7.540        171.67	    14.353
   7.560        142.50	    13.077
   7.580        151.67	    13.491
   7.600        136.67	    12.806
   7.620        156.67	    13.711
   7.640        155.00	    13.638
   7.660        145.00	    13.191
   7.680        146.67	    13.266
   7.700        126.67	    12.329
   7.720        132.50	    12.610
   7.740        144.17	    13.153
   7.760        160.83	    13.892
   7.780        127.50	    12.369
   7.800        145.83	    13.229
   7.820        146.67	    13.266
   7.840        135.83	    12.767
   7.860        171.67	    14.353
   7.880        150.00	    13.416
   7.900        144.17	    13.153
   7.920        138.33	    12.884
   7.940        143.33	    13.115
   7.960        148.33	    13.342
   7.980        152.50	    13.528
   8.000        125.83	    12.288
   8.020        127.50	    12.369
   8.040        160.83	    13.892
   8.060        150.83	    13.454
   8.080        155.83	    13.675
   8.100        154.17	    13.601
   8.120        151.67	    13.491
   8.140        128.33	    12.410
   8.160        132.50	    12.610
   8.180        130.83	    12.530
   8.200        145.83	    13.229
   8.220        145.00	    13.191
   8.240        149.17	    13.379
   8.260        171.67	    14.353
   8.280        147.50	    13.304
   8.300        135.00	    12.728
   8.320        144.17	    13.153
   8.340        133.33	    12.649
   8.360        150.00	    13.416
   8.380        150.00	    13.416
   8.400        153.33	    13.565
   8.420        150.83	    13.454
   8.440        160.00	    13.856
   8.460        150.83	    13.454
   8.480        158.33	    13.784
   8.500        159.17	    13.820
   8.520        161.67	    13.928
   8.540        150.83	    13.454
   8.560        197.50	    15.395
   8.580        182.50	    14.799
   8.600        180.00	    14.697
   8.620        206.67	    15.748
   8.640        212.50	    15.969
   8.660        220.83	    16.279
   8.680        245.00	    17.146
   8.700        310.00	    19.287
   8.720        287.50	    18.574
   8.740        395.83	    21.794
   8.760        515.00	    24.860
   8.780        790.00	    30.790
   8.800        938.33	    33.556
   8.820        787.50	    30.741
   8.840        451.67	    23.281
   8.860        238.33	    16.912
   8.880        175.00	    14.491
   8.900        170.83	    14.318
   8.920        155.00	    13.638
   8.940        160.83	    13.892
   8.960        151.67	    13.491
   8.980        140.83	    13.000
   9.000        120.83	    12.042
   9.020        152.50	    13.528
   9.040        140.83	    13.000
   9.060        146.67	    13.266
   9.080        170.83	    14.318
   9.100        162.50	    13.964
   9.120        148.33	    13.342
   9.140        134.17	    12.689
   9.160        124.17	    12.207
   9.180        117.50	    11.874
   9.200        141.67	    13.038
   9.220        146.67	    13.266
   9.240        133.33	    12.649
   9.260        118.33	    11.916
   9.280        123.33	    12.166
   9.300        107.50	    11.358
   9.320        150.00	    13.416
   9.340        139.17	    12.923
   9.360        126.67	    12.329
   9.380        127.50	    12.369
   9.400        135.83	    12.767
   9.420        124.17	    12.207
   9.440        125.83	    12.288
   9.460        110.83	    11.533
   9.480        124.17	    12.207
   9.500        108.33	    11.402
   9.520        118.33	    11.916
   9.540        111.67	    11.576
   9.560        107.50	    11.358
   9.580        113.33	    11.662
   9.600        124.17	    12.207
   9.620         94.17	    10.630
   9.640        127.50	    12.369
   9.660        123.33	    12.166
   9.680        123.33	    12.166
   9.700        109.17	    11.446
   9.720         90.00	    10.392
   9.740        137.50	    12.845
   9.760        115.83	    11.790
   9.780        105.83	    11.269
   9.800         98.33	    10.863
   9.820        104.17	    11.180
   9.840         99.17	    10.909
   9.860        116.67	    11.832
   9.880        115.83	    11.790
   9.900        130.83	    12.530
   9.920         99.17	    10.909
   9.940        100.83	    11.000
   9.960         85.83	    10.149
   9.980        122.50	    12.124
  10.000        131.67	    12.570
  10.020        108.33	    11.402
  10.040        124.17	    12.207
  10.060        103.33	    11.136
  10.080         99.17	    10.909
  10.100         91.67	    10.488
  10.120        117.50	    11.874
  10.140        108.33	    11.402
  10.160         97.50	    10.817
  10.180         82.50	     9.950
  10.200         95.00	    10.677
  10.220        116.67	    11.832
  10.240        103.33	    11.136
  10.260        115.83	    11.790
  10.280        111.67	    11.576
  10.300        106.67	    11.314
  10.320        104.17	    11.180
  10.340        120.00	    12.000
  10.360        122.50	    12.124
  10.380        120.00	    12.000
  10.400        144.17	    13.153
  10.420        134.17	    12.689
  10.440        154.17	    13.601
  10.460        180.00	    14.697
  10.480        131.67	    12.570
  10.500         86.67	    10.198
  10.520        106.67	    11.314
  10.540         69.17	     9.110
  10.560         96.67	    10.770
  10.580        103.33	    11.136
  10.600        100.00	    10.954
  10.620        106.67	    11.314
  10.640         98.33	    10.863
  10.660        110.00	    11.489
  10.680         89.17	    10.344
  10.700        101.67	    11.045
  10.720         92.50	    10.536
  10.740        100.83	    11.000
  10.760         98.33	    10.863
  10.780         94.17	    10.630
  10.800        103.33	    11.136
  10.820         95.83	    10.724
  10.840         90.00	    10.392
  10.860         90.00	    10.392
  10.880         95.83	    10.724
  10.900         99.17	    10.909
  10.920         93.33	    10.583
  10.940        110.83	    11.533
  10.960        122.50	    12.124
  10.980        107.50	    11.358
  11.000        102.50	    11.091
  11.020         88.33	    10.296
  11.040         95.00	    10.677
  11.060         97.50	    10.817
  11.080        106.67	    11.314
  11.100        107.50	    11.358
  11.120         99.17	    10.909
  11.140        100.00	    10.954
  11.160         78.33	     9.695
  11.180        107.50	    11.358
  11.200         96.67	    10.770
  11.220         96.67	    10.770
  11.240         93.33	    10.583
  11.260         96.67	    10.770
  11.280         97.50	    10.817
  11.300        102.50	    11.091
  11.320        105.00	    11.225
  11.340         97.50	    10.817
  11.360         84.17	    10.050
  11.380        100.00	    10.954
  11.400        103.33	    11.136
  11.420        102.50	    11.091
  11.440        101.67	    11.045
  11.460         96.67	    10.770
  11.480         88.33	    10.296
  11.500         85.00	    10.100
  11.520         98.33	    10.863
  11.540         98.33	    10.863
  11.560         85.00	    10.100
  11.580         96.67	    10.770
  11.600         97.50	    10.817
  11.620         91.67	    10.488
  11.640         99.17	    10.909
  11.660         80.00	     9.798
  11.680         88.33	    10.296
  11.700         80.00	     9.798
  11.720        105.00	    11.225
  11.740         97.50	    10.817
  11.760         72.50	     9.327
  11.780        100.83	    11.000
  11.800         98.33	    10.863
  11.820         94.17	    10.630
  11.840         88.33	    10.296
  11.860         94.17	    10.630
  11.880         91.67	    10.488
  11.900        105.83	    11.269
  11.920        110.83	    11.533
  11.940         95.83	    10.724
  11.960        130.83	    12.530
  11.980        101.67	    11.045
  12.000        103.33	    11.136
  12.020        125.83	    12.288
  12.040        138.33	    12.884
  12.060        195.83	    15.330
  12.080        257.50	    17.578
  12.100        275.83	    18.193
  12.120        233.33	    16.733
  12.140        195.00	    15.297
  12.160        149.17	    13.379
  12.180        152.50	    13.528
  12.200        135.83	    12.767
  12.220        110.83	    11.533
  12.240        140.00	    12.961
  12.260        170.00	    14.283
  12.280        149.17	    13.379
  12.300        163.33	    14.000
  12.320        179.17	    14.663
  12.340        184.17	    14.866
  12.360        213.33	    16.000
  12.380        229.17	    16.583
  12.400        288.33	    18.601
  12.420        281.67	    18.385
  12.440        248.33	    17.263
  12.460        203.33	    15.620
  12.480        126.67	    12.329
  12.500         93.33	    10.583
  12.520         85.83	    10.149
  12.540        104.17	    11.180
  12.560         90.83	    10.440
  12.580         97.50	    10.817
  12.600         76.67	     9.592
  12.620         89.17	    10.344
  12.640        110.00	    11.489
  12.660         78.33	     9.695
  12.680         75.83	     9.539
  12.700         75.00	     9.487
  12.720         80.83	     9.849
  12.740         82.50	     9.950
  12.760         75.00	     9.487
  12.780         90.00	    10.392
  12.800         70.83	     9.220
  12.820         87.50	    10.247
  12.840         70.83	     9.220
  12.860        100.83	    11.000
  12.880         98.33	    10.863
  12.900         84.17	    10.050
  12.920         92.50	    10.536
  12.940         77.50	     9.644
  12.960         71.67	     9.274
  12.980         70.00	     9.165
  13.000         80.83	     9.849
  13.020         75.83	     9.539
  13.040         66.67	     8.944
  13.060         85.00	    10.100
  13.080         79.17	     9.747
  13.100         79.17	     9.747
  13.120         90.83	    10.440
  13.140         76.67	     9.592
  13.160         76.67	     9.592
  13.180         80.00	     9.798
  13.200         83.33	    10.000
  13.220         70.83	     9.220
  13.240        100.00	    10.954
  13.260         79.17	     9.747
  13.280         80.00	     9.798
  13.300         80.00	     9.798
  13.320         74.17	     9.434
  13.340         65.00	     8.832
  13.360         75.00	     9.487
  13.380         79.17	     9.747
  13.400         73.33	     9.381
  13.420         85.00	    10.100
  13.440         71.67	     9.274
  13.460         82.50	     9.950
  13.480         73.33	     9.381
  13.500         79.17	     9.747
  13.520         90.00	    10.392
  13.540         85.00	    10.100
  13.560         79.17	     9.747
  13.580         81.67	     9.899
  13.600         91.67	    10.488
  13.620         85.00	    10.100
  13.640         85.83	    10.149
  13.660         89.17	    10.344
  13.680        106.67	    11.314
  13.700         91.67	    10.488
  13.720        141.67	    13.038
  13.740        151.67	    13.491
  13.760        193.33	    15.232
  13.780        151.67	    13.491
  13.800        132.50	    12.610
  13.820        105.83	    11.269
  13.840         88.33	    10.296
  13.860         82.50	     9.950
  13.880         99.17	    10.909
  13.900         87.50	    10.247
  13.920        101.67	    11.045
  13.940        101.67	    11.045
  13.960         91.67	    10.488
  13.980         78.33	     9.695
  14.000         77.50	     9.644
  14.020         76.67	     9.592
  14.040         71.67	     9.274
  14.060         65.83	     8.888
  14.080         78.33	     9.695
  14.100         72.50	     9.327
  14.120         72.50	     9.327
  14.140         68.33	     9.055
  14.160         59.17	     8.426
  14.180         66.67	     8.944
  14.200         71.67	     9.274
  14.220         68.33	     9.055
  14.240         65.83	     8.888
  14.260         70.00	     9.165
  14.280         74.17	     9.434
  14.300         76.67	     9.592
  14.320         73.33	     9.381
  14.340         76.67	     9.592
  14.360         65.00	     8.832
  14.380         76.67	     9.592
  14.400         75.83	     9.539
