
Filename:
	C:\Program Files\Thermo Electron\WinXRD\Datafiles\F_HERMAN\FIEN\G31_RT.raw

File Created:
	January 30, 2020 - 10:27 AM

Specimen Id:
	G31 RT

Specimen Name:
	

Specimen Description:
	

Comment:
Scan Type: 2Theta Scan
Start Angle: 3 deg.
Stop Angle: 65 deg.
Num Points: 3101
Step Size: 0.02 deg.
Scan Rate: 1.000000
Scan Mode: Continuous
Wavelength: 1.540562
\Kalpha1: 1.540562	\Kalpha2: 1.544390	\Kbeta: 1.392218

Optics:
		Detector:
			 Type: Fixed Slits
		Tube: 
			 Type: Fixed Slits


Datas:
 Pos [deg]       Rate [CPS]      ESD [-]

Range 1 ---> Iteration 1
   3.000        452.50	    23.302
   3.020        435.00	    22.847
   3.040        442.50	    23.043
   3.060        419.17	    22.428
   3.080        437.50	    22.913
   3.100        460.83	    23.516
   3.120        468.33	    23.707
   3.140        420.83	    22.472
   3.160        420.83	    22.472
   3.180        425.83	    22.605
   3.200        445.83	    23.130
   3.220        400.00	    21.909
   3.240        446.67	    23.152
   3.260        399.17	    21.886
   3.280        409.17	    22.159
   3.300        394.17	    21.749
   3.320        399.17	    21.886
   3.340        405.00	    22.045
   3.360        420.00	    22.450
   3.380        390.00	    21.633
   3.400        387.50	    21.564
   3.420        374.17	    21.190
   3.440        364.17	    20.905
   3.460        407.50	    22.113
   3.480        387.50	    21.564
   3.500        375.83	    21.237
   3.520        395.00	    21.772
   3.540        368.33	    21.024
   3.560        380.00	    21.354
   3.580        344.17	    20.322
   3.600        356.67	    20.688
   3.620        385.83	    21.517
   3.640        382.50	    21.424
   3.660        384.17	    21.471
   3.680        347.50	    20.421
   3.700        363.33	    20.881
   3.720        375.00	    21.213
   3.740        362.50	    20.857
   3.760        351.67	    20.543
   3.780        342.50	    20.273
   3.800        328.33	    19.849
   3.820        342.50	    20.273
   3.840        336.67	    20.100
   3.860        346.67	    20.396
   3.880        317.50	    19.519
   3.900        336.67	    20.100
   3.920        330.83	    19.925
   3.940        300.00	    18.974
   3.960        339.17	    20.174
   3.980        339.17	    20.174
   4.000        305.00	    19.131
   4.020        321.67	    19.647
   4.040        345.00	    20.347
   4.060        299.17	    18.947
   4.080        329.17	    19.875
   4.100        320.83	    19.621
   4.120        333.33	    20.000
   4.140        287.50	    18.574
   4.160        326.67	    19.799
   4.180        317.50	    19.519
   4.200        300.00	    18.974
   4.220        303.33	    19.079
   4.240        308.33	    19.235
   4.260        290.00	    18.655
   4.280        297.50	    18.894
   4.300        306.67	    19.183
   4.320        314.17	    19.416
   4.340        298.33	    18.921
   4.360        290.00	    18.655
   4.380        288.33	    18.601
   4.400        293.33	    18.762
   4.420        279.17	    18.303
   4.440        274.17	    18.138
   4.460        296.67	    18.868
   4.480        300.83	    19.000
   4.500        314.17	    19.416
   4.520        256.67	    17.550
   4.540        302.50	    19.053
   4.560        268.33	    17.944
   4.580        270.83	    18.028
   4.600        270.00	    18.000
   4.620        253.33	    17.436
   4.640        283.33	    18.439
   4.660        277.50	    18.248
   4.680        277.50	    18.248
   4.700        280.00	    18.330
   4.720        245.83	    17.176
   4.740        261.67	    17.720
   4.760        274.17	    18.138
   4.780        245.83	    17.176
   4.800        269.17	    17.972
   4.820        288.33	    18.601
   4.840        276.67	    18.221
   4.860        269.17	    17.972
   4.880        255.00	    17.493
   4.900        259.17	    17.635
   4.920        250.83	    17.349
   4.940        239.17	    16.941
   4.960        266.67	    17.889
   4.980        264.17	    17.804
   5.000        261.67	    17.720
   5.020        250.83	    17.349
   5.040        239.17	    16.941
   5.060        252.50	    17.407
   5.080        250.83	    17.349
   5.100        280.00	    18.330
   5.120        255.83	    17.521
   5.140        229.17	    16.583
   5.160        226.67	    16.492
   5.180        245.00	    17.146
   5.200        218.33	    16.186
   5.220        231.67	    16.673
   5.240        217.50	    16.155
   5.260        222.50	    16.340
   5.280        239.17	    16.941
   5.300        245.00	    17.146
   5.320        245.83	    17.176
   5.340        261.67	    17.720
   5.360        235.83	    16.823
   5.380        237.50	    16.882
   5.400        217.50	    16.155
   5.420        241.67	    17.029
   5.440        207.50	    15.780
   5.460        243.33	    17.088
   5.480        242.50	    17.059
   5.500        218.33	    16.186
   5.520        228.33	    16.553
   5.540        250.83	    17.349
   5.560        202.50	    15.588
   5.580        200.83	    15.524
   5.600        215.00	    16.062
   5.620        218.33	    16.186
   5.640        192.50	    15.199
   5.660        214.17	    16.031
   5.680        230.83	    16.643
   5.700        196.67	    15.362
   5.720        234.17	    16.763
   5.740        225.00	    16.432
   5.760        234.17	    16.763
   5.780        231.67	    16.673
   5.800        224.17	    16.401
   5.820        252.50	    17.407
   5.840        254.17	    17.464
   5.860        250.83	    17.349
   5.880        235.00	    16.793
   5.900        250.00	    17.321
   5.920        245.83	    17.176
   5.940        222.50	    16.340
   5.960        257.50	    17.578
   5.980        242.50	    17.059
   6.000        254.17	    17.464
   6.020        239.17	    16.941
   6.040        264.17	    17.804
   6.060        275.00	    18.166
   6.080        279.17	    18.303
   6.100        290.83	    18.682
   6.120        283.33	    18.439
   6.140        279.17	    18.303
   6.160        253.33	    17.436
   6.180        210.83	    15.906
   6.200        209.17	    15.843
   6.220        227.50	    16.523
   6.240        197.50	    15.395
   6.260        183.33	    14.832
   6.280        213.33	    16.000
   6.300        209.17	    15.843
   6.320        203.33	    15.620
   6.340        205.83	    15.716
   6.360        222.50	    16.340
   6.380        200.00	    15.492
   6.400        185.83	    14.933
   6.420        210.83	    15.906
   6.440        200.00	    15.492
   6.460        198.33	    15.427
   6.480        190.83	    15.133
   6.500        189.17	    15.067
   6.520        193.33	    15.232
   6.540        191.67	    15.166
   6.560        189.17	    15.067
   6.580        198.33	    15.427
   6.600        154.17	    13.601
   6.620        175.83	    14.526
   6.640        175.00	    14.491
   6.660        166.67	    14.142
   6.680        205.83	    15.716
   6.700        170.00	    14.283
   6.720        168.33	    14.213
   6.740        193.33	    15.232
   6.760        198.33	    15.427
   6.780        189.17	    15.067
   6.800        180.00	    14.697
   6.820        176.67	    14.560
   6.840        178.33	    14.629
   6.860        171.67	    14.353
   6.880        188.33	    15.033
   6.900        177.50	    14.595
   6.920        167.50	    14.177
   6.940        186.67	    14.967
   6.960        166.67	    14.142
   6.980        155.83	    13.675
   7.000        168.33	    14.213
   7.020        194.17	    15.264
   7.040        164.17	    14.036
   7.060        152.50	    13.528
   7.080        152.50	    13.528
   7.100        150.00	    13.416
   7.120        204.17	    15.652
   7.140        143.33	    13.115
   7.160        169.17	    14.248
   7.180        162.50	    13.964
   7.200        174.17	    14.457
   7.220        157.50	    13.748
   7.240        172.50	    14.387
   7.260        166.67	    14.142
   7.280        147.50	    13.304
   7.300        150.00	    13.416
   7.320        179.17	    14.663
   7.340        161.67	    13.928
   7.360        167.50	    14.177
   7.380        178.33	    14.629
   7.400        154.17	    13.601
   7.420        159.17	    13.820
   7.440        147.50	    13.304
   7.460        154.17	    13.601
   7.480        149.17	    13.379
   7.500        154.17	    13.601
   7.520        163.33	    14.000
   7.540        140.00	    12.961
   7.560        160.83	    13.892
   7.580        159.17	    13.820
   7.600        180.83	    14.731
   7.620        155.00	    13.638
   7.640        168.33	    14.213
   7.660        161.67	    13.928
   7.680        145.83	    13.229
   7.700        152.50	    13.528
   7.720        158.33	    13.784
   7.740        154.17	    13.601
   7.760        126.67	    12.329
   7.780        162.50	    13.964
   7.800        146.67	    13.266
   7.820        140.00	    12.961
   7.840        158.33	    13.784
   7.860        146.67	    13.266
   7.880        155.00	    13.638
   7.900        146.67	    13.266
   7.920        130.83	    12.530
   7.940        156.67	    13.711
   7.960        155.83	    13.675
   7.980        153.33	    13.565
   8.000        146.67	    13.266
   8.020        140.83	    13.000
   8.040        161.67	    13.928
   8.060        136.67	    12.806
   8.080        159.17	    13.820
   8.100        145.00	    13.191
   8.120        138.33	    12.884
   8.140        165.83	    14.107
   8.160        144.17	    13.153
   8.180        145.83	    13.229
   8.200        147.50	    13.304
   8.220        142.50	    13.077
   8.240        159.17	    13.820
   8.260        141.67	    13.038
   8.280        147.50	    13.304
   8.300        153.33	    13.565
   8.320        150.00	    13.416
   8.340        153.33	    13.565
   8.360        177.50	    14.595
   8.380        145.00	    13.191
   8.400        164.17	    14.036
   8.420        177.50	    14.595
   8.440        170.83	    14.318
   8.460        178.33	    14.629
   8.480        157.50	    13.748
   8.500        173.33	    14.422
   8.520        184.17	    14.866
   8.540        158.33	    13.784
   8.560        180.00	    14.697
   8.580        171.67	    14.353
   8.600        211.67	    15.937
   8.620        237.50	    16.882
   8.640        267.50	    17.916
   8.660        230.00	    16.613
   8.680        260.83	    17.692
   8.700        295.83	    18.841
   8.720        345.00	    20.347
   8.740        480.83	    24.021
   8.760        555.00	    25.807
   8.780        486.67	    24.166
   8.800        371.67	    21.119
   8.820        237.50	    16.882
   8.840        198.33	    15.427
   8.860        160.00	    13.856
   8.880        132.50	    12.610
   8.900        150.83	    13.454
   8.920        135.00	    12.728
   8.940        137.50	    12.845
   8.960        149.17	    13.379
   8.980        124.17	    12.207
   9.000        137.50	    12.845
   9.020        151.67	    13.491
   9.040        149.17	    13.379
   9.060        157.50	    13.748
   9.080        169.17	    14.248
   9.100        135.00	    12.728
   9.120        138.33	    12.884
   9.140        129.17	    12.450
   9.160        139.17	    12.923
   9.180        125.83	    12.288
   9.200        134.17	    12.689
   9.220        111.67	    11.576
   9.240        144.17	    13.153
   9.260        125.83	    12.288
   9.280        135.00	    12.728
   9.300        140.83	    13.000
   9.320        137.50	    12.845
   9.340        135.00	    12.728
   9.360        155.83	    13.675
   9.380        147.50	    13.304
   9.400        142.50	    13.077
   9.420        114.17	    11.705
   9.440        118.33	    11.916
   9.460        106.67	    11.314
   9.480        118.33	    11.916
   9.500        123.33	    12.166
   9.520        106.67	    11.314
   9.540        115.83	    11.790
   9.560        109.17	    11.446
   9.580        115.83	    11.790
   9.600        126.67	    12.329
   9.620        117.50	    11.874
   9.640        102.50	    11.091
   9.660        138.33	    12.884
   9.680        111.67	    11.576
   9.700         90.00	    10.392
   9.720        125.00	    12.247
   9.740        114.17	    11.705
   9.760        127.50	    12.369
   9.780        128.33	    12.410
   9.800        111.67	    11.576
   9.820        108.33	    11.402
   9.840        120.00	    12.000
   9.860        105.00	    11.225
   9.880        120.00	    12.000
   9.900        110.00	    11.489
   9.920        111.67	    11.576
   9.940         97.50	    10.817
   9.960        118.33	    11.916
   9.980        100.83	    11.000
  10.000        113.33	    11.662
  10.020        111.67	    11.576
  10.040        111.67	    11.576
  10.060        117.50	    11.874
  10.080         84.17	    10.050
  10.100         97.50	    10.817
  10.120        110.83	    11.533
  10.140        125.83	    12.288
  10.160        112.50	    11.619
  10.180        100.00	    10.954
  10.200        125.00	    12.247
  10.220        117.50	    11.874
  10.240        115.00	    11.747
  10.260         94.17	    10.630
  10.280        118.33	    11.916
  10.300        110.83	    11.533
  10.320        101.67	    11.045
  10.340        126.67	    12.329
  10.360        145.00	    13.191
  10.380        224.17	    16.401
  10.400        261.67	    17.720
  10.420        263.33	    17.776
  10.440        185.00	    14.900
  10.460        120.83	    12.042
  10.480        114.17	    11.705
  10.500        110.00	    11.489
  10.520        155.00	    13.638
  10.540        137.50	    12.845
  10.560        140.00	    12.961
  10.580        117.50	    11.874
  10.600        115.83	    11.790
  10.620         99.17	    10.909
  10.640        108.33	    11.402
  10.660        106.67	    11.314
  10.680        131.67	    12.570
  10.700         97.50	    10.817
  10.720        110.83	    11.533
  10.740        105.00	    11.225
  10.760         91.67	    10.488
  10.780        110.00	    11.489
  10.800        112.50	    11.619
  10.820         97.50	    10.817
  10.840        100.00	    10.954
  10.860        112.50	    11.619
  10.880         93.33	    10.583
  10.900        103.33	    11.136
  10.920        115.00	    11.747
  10.940        102.50	    11.091
  10.960         88.33	    10.296
  10.980         97.50	    10.817
  11.000        104.17	    11.180
  11.020        110.00	    11.489
  11.040         85.00	    10.100
  11.060         95.00	    10.677
  11.080        100.83	    11.000
  11.100        110.83	    11.533
  11.120         84.17	    10.050
  11.140         91.67	    10.488
  11.160        102.50	    11.091
  11.180        101.67	    11.045
  11.200         98.33	    10.863
  11.220         93.33	    10.583
  11.240        102.50	    11.091
  11.260        110.83	    11.533
  11.280        105.83	    11.269
  11.300         98.33	    10.863
  11.320         98.33	    10.863
  11.340         96.67	    10.770
  11.360         97.50	    10.817
  11.380        103.33	    11.136
  11.400         99.17	    10.909
  11.420         91.67	    10.488
  11.440        101.67	    11.045
  11.460         89.17	    10.344
  11.480         95.83	    10.724
  11.500        107.50	    11.358
  11.520         95.00	    10.677
  11.540        107.50	    11.358
  11.560        102.50	    11.091
  11.580         95.00	    10.677
  11.600        115.83	    11.790
  11.620        105.00	    11.225
  11.640        109.17	    11.446
  11.660        105.83	    11.269
  11.680         84.17	    10.050
  11.700        100.83	    11.000
  11.720        115.00	    11.747
  11.740         82.50	     9.950
  11.760         87.50	    10.247
  11.780         75.00	     9.487
  11.800        104.17	    11.180
  11.820        109.17	    11.446
  11.840        108.33	    11.402
  11.860         97.50	    10.817
  11.880        121.67	    12.083
  11.900         99.17	    10.909
  11.920        100.00	    10.954
  11.940        110.00	    11.489
  11.960        123.33	    12.166
  11.980        144.17	    13.153
  12.000        144.17	    13.153
  12.020        188.33	    15.033
  12.040        276.67	    18.221
  12.060        307.50	    19.209
  12.080        321.67	    19.647
  12.100        269.17	    17.972
  12.120        208.33	    15.811
  12.140        174.17	    14.457
  12.160        162.50	    13.964
  12.180        158.33	    13.784
  12.200        168.33	    14.213
  12.220        165.83	    14.107
  12.240        195.00	    15.297
  12.260        209.17	    15.843
  12.280        160.83	    13.892
  12.300        201.67	    15.556
  12.320        225.83	    16.462
  12.340        270.00	    18.000
  12.360        291.67	    18.708
  12.380        314.17	    19.416
  12.400        261.67	    17.720
  12.420        190.00	    15.100
  12.440        161.67	    13.928
  12.460        125.83	    12.288
  12.480        110.83	    11.533
  12.500        129.17	    12.450
  12.520         92.50	    10.536
  12.540        105.83	    11.269
  12.560         98.33	    10.863
  12.580         92.50	    10.536
  12.600         96.67	    10.770
  12.620        100.00	    10.954
  12.640         86.67	    10.198
  12.660         94.17	    10.630
  12.680         96.67	    10.770
  12.700         78.33	     9.695
  12.720         94.17	    10.630
  12.740         88.33	    10.296
  12.760         90.00	    10.392
  12.780         85.83	    10.149
  12.800         90.83	    10.440
  12.820         89.17	    10.344
  12.840         71.67	     9.274
  12.860         87.50	    10.247
  12.880         90.83	    10.440
  12.900         80.83	     9.849
  12.920         77.50	     9.644
  12.940         75.83	     9.539
  12.960         89.17	    10.344
  12.980         70.00	     9.165
  13.000         84.17	    10.050
  13.020         97.50	    10.817
  13.040         80.00	     9.798
  13.060         75.83	     9.539
  13.080         90.83	    10.440
  13.100         75.83	     9.539
  13.120         80.83	     9.849
  13.140         90.83	    10.440
  13.160         75.83	     9.539
  13.180         85.00	    10.100
  13.200         89.17	    10.344
  13.220         78.33	     9.695
  13.240         74.17	     9.434
  13.260         77.50	     9.644
  13.280         80.00	     9.798
  13.300         79.17	     9.747
  13.320         92.50	    10.536
  13.340         95.00	    10.677
  13.360         75.00	     9.487
  13.380         84.17	    10.050
  13.400         66.67	     8.944
  13.420         79.17	     9.747
  13.440         81.67	     9.899
  13.460         91.67	    10.488
  13.480         67.50	     9.000
  13.500        100.00	    10.954
  13.520         85.83	    10.149
  13.540         75.00	     9.487
  13.560         95.00	    10.677
  13.580         80.83	     9.849
  13.600         86.67	    10.198
  13.620         75.00	     9.487
  13.640         75.83	     9.539
  13.660         85.83	    10.149
  13.680         75.00	     9.487
  13.700         70.83	     9.220
  13.720         99.17	    10.909
  13.740         73.33	     9.381
  13.760         80.83	     9.849
  13.780        101.67	    11.045
  13.800         83.33	    10.000
  13.820         75.83	     9.539
  13.840         83.33	    10.000
  13.860         68.33	     9.055
  13.880         75.83	     9.539
  13.900         89.17	    10.344
  13.920         76.67	     9.592
  13.940         62.50	     8.660
  13.960         86.67	    10.198
  13.980         89.17	    10.344
  14.000         68.33	     9.055
  14.020         72.50	     9.327
  14.040         71.67	     9.274
  14.060         78.33	     9.695
  14.080         62.50	     8.660
  14.100         77.50	     9.644
  14.120         65.00	     8.832
  14.140         83.33	    10.000
  14.160         75.00	     9.487
  14.180         80.83	     9.849
  14.200         55.83	     8.185
  14.220         59.17	     8.426
  14.240         65.83	     8.888
  14.260         73.33	     9.381
  14.280         75.83	     9.539
  14.300         67.50	     9.000
  14.320         60.83	     8.544
  14.340         74.17	     9.434
  14.360         71.67	     9.274
  14.380         79.17	     9.747
  14.400         85.00	    10.100
