
Filename:
	C:\Program Files\Thermo Electron\WinXRD\Datafiles\F_HERMAN\GEO\G32_RT.raw

File Created:
	February 18, 2020 - 06:11 PM

Specimen Id:
	G32_RT

Specimen Name:
	

Specimen Description:
	

Comment:
Scan Type: 2Theta Scan
Start Angle: 3 deg.
Stop Angle: 65 deg.
Num Points: 3101
Step Size: 0.02 deg.
Scan Rate: 1.000000
Scan Mode: Continuous
Wavelength: 1.540562
\Kalpha1: 1.540562	\Kalpha2: 1.544390	\Kbeta: 1.392218

Optics:
		Detector:
			 Type: Fixed Slits
		Tube: 
			 Type: Fixed Slits


Datas:
 Pos [deg]       Rate [CPS]      ESD [-]

Range 1 ---> Iteration 1
   3.000        453.33	    23.324
   3.020        459.17	    23.473
   3.040        412.50	    22.249
   3.060        456.67	    23.409
   3.080        448.33	    23.195
   3.100        430.83	    22.738
   3.120        444.17	    23.087
   3.140        404.17	    22.023
   3.160        415.83	    22.338
   3.180        399.17	    21.886
   3.200        420.83	    22.472
   3.220        375.00	    21.213
   3.240        418.33	    22.405
   3.260        380.00	    21.354
   3.280        404.17	    22.023
   3.300        367.50	    21.000
   3.320        401.67	    21.954
   3.340        373.33	    21.166
   3.360        379.17	    21.331
   3.380        370.83	    21.095
   3.400        367.50	    21.000
   3.420        363.33	    20.881
   3.440        369.17	    21.048
   3.460        370.83	    21.095
   3.480        359.17	    20.761
   3.500        369.17	    21.048
   3.520        372.50	    21.142
   3.540        380.00	    21.354
   3.560        345.83	    20.372
   3.580        350.83	    20.518
   3.600        368.33	    21.024
   3.620        355.83	    20.664
   3.640        320.00	    19.596
   3.660        342.50	    20.273
   3.680        340.00	    20.199
   3.700        350.83	    20.518
   3.720        351.67	    20.543
   3.740        346.67	    20.396
   3.760        325.00	    19.748
   3.780        322.50	    19.672
   3.800        298.33	    18.921
   3.820        335.00	    20.050
   3.840        330.00	    19.900
   3.860        325.00	    19.748
   3.880        305.83	    19.157
   3.900        311.67	    19.339
   3.920        309.17	    19.261
   3.940        305.83	    19.157
   3.960        327.50	    19.824
   3.980        290.83	    18.682
   4.000        298.33	    18.921
   4.020        300.83	    19.000
   4.040        329.17	    19.875
   4.060        292.50	    18.735
   4.080        288.33	    18.601
   4.100        298.33	    18.921
   4.120        312.50	    19.365
   4.140        274.17	    18.138
   4.160        311.67	    19.339
   4.180        292.50	    18.735
   4.200        296.67	    18.868
   4.220        275.00	    18.166
   4.240        276.67	    18.221
   4.260        291.67	    18.708
   4.280        280.83	    18.358
   4.300        296.67	    18.868
   4.320        289.17	    18.628
   4.340        250.83	    17.349
   4.360        268.33	    17.944
   4.380        290.83	    18.682
   4.400        250.00	    17.321
   4.420        258.33	    17.607
   4.440        275.00	    18.166
   4.460        288.33	    18.601
   4.480        250.00	    17.321
   4.500        269.17	    17.972
   4.520        259.17	    17.635
   4.540        245.00	    17.146
   4.560        265.83	    17.861
   4.580        251.67	    17.378
   4.600        261.67	    17.720
   4.620        252.50	    17.407
   4.640        260.83	    17.692
   4.660        243.33	    17.088
   4.680        258.33	    17.607
   4.700        280.83	    18.358
   4.720        249.17	    17.292
   4.740        258.33	    17.607
   4.760        246.67	    17.205
   4.780        252.50	    17.407
   4.800        260.00	    17.664
   4.820        236.67	    16.852
   4.840        258.33	    17.607
   4.860        260.00	    17.664
   4.880        229.17	    16.583
   4.900        241.67	    17.029
   4.920        207.50	    15.780
   4.940        235.83	    16.823
   4.960        231.67	    16.673
   4.980        245.00	    17.146
   5.000        258.33	    17.607
   5.020        245.83	    17.176
   5.040        253.33	    17.436
   5.060        233.33	    16.733
   5.080        230.00	    16.613
   5.100        231.67	    16.673
   5.120        228.33	    16.553
   5.140        228.33	    16.553
   5.160        225.83	    16.462
   5.180        232.50	    16.703
   5.200        219.17	    16.217
   5.220        236.67	    16.852
   5.240        211.67	    15.937
   5.260        220.83	    16.279
   5.280        236.67	    16.852
   5.300        213.33	    16.000
   5.320        214.17	    16.031
   5.340        228.33	    16.553
   5.360        240.00	    16.971
   5.380        218.33	    16.186
   5.400        240.00	    16.971
   5.420        211.67	    15.937
   5.440        196.67	    15.362
   5.460        218.33	    16.186
   5.480        234.17	    16.763
   5.500        231.67	    16.673
   5.520        219.17	    16.217
   5.540        210.83	    15.906
   5.560        200.00	    15.492
   5.580        190.00	    15.100
   5.600        222.50	    16.340
   5.620        199.17	    15.460
   5.640        222.50	    16.340
   5.660        230.00	    16.613
   5.680        180.83	    14.731
   5.700        214.17	    16.031
   5.720        204.17	    15.652
   5.740        215.00	    16.062
   5.760        220.83	    16.279
   5.780        227.50	    16.523
   5.800        190.83	    15.133
   5.820        220.00	    16.248
   5.840        221.67	    16.310
   5.860        215.83	    16.093
   5.880        225.83	    16.462
   5.900        230.83	    16.643
   5.920        245.00	    17.146
   5.940        237.50	    16.882
   5.960        228.33	    16.553
   5.980        223.33	    16.371
   6.000        215.00	    16.062
   6.020        236.67	    16.852
   6.040        220.00	    16.248
   6.060        235.83	    16.823
   6.080        281.67	    18.385
   6.100        298.33	    18.921
   6.120        266.67	    17.889
   6.140        285.00	    18.493
   6.160        271.67	    18.055
   6.180        245.83	    17.176
   6.200        220.00	    16.248
   6.220        205.83	    15.716
   6.240        175.83	    14.526
   6.260        181.67	    14.765
   6.280        182.50	    14.799
   6.300        200.00	    15.492
   6.320        177.50	    14.595
   6.340        192.50	    15.199
   6.360        191.67	    15.166
   6.380        184.17	    14.866
   6.400        185.83	    14.933
   6.420        193.33	    15.232
   6.440        215.83	    16.093
   6.460        205.00	    15.684
   6.480        165.00	    14.071
   6.500        172.50	    14.387
   6.520        181.67	    14.765
   6.540        168.33	    14.213
   6.560        171.67	    14.353
   6.580        161.67	    13.928
   6.600        176.67	    14.560
   6.620        191.67	    15.166
   6.640        181.67	    14.765
   6.660        192.50	    15.199
   6.680        180.00	    14.697
   6.700        175.83	    14.526
   6.720        160.83	    13.892
   6.740        169.17	    14.248
   6.760        165.83	    14.107
   6.780        176.67	    14.560
   6.800        176.67	    14.560
   6.820        179.17	    14.663
   6.840        168.33	    14.213
   6.860        171.67	    14.353
   6.880        182.50	    14.799
   6.900        177.50	    14.595
   6.920        169.17	    14.248
   6.940        191.67	    15.166
   6.960        170.83	    14.318
   6.980        175.83	    14.526
   7.000        167.50	    14.177
   7.020        171.67	    14.353
   7.040        165.83	    14.107
   7.060        150.00	    13.416
   7.080        174.17	    14.457
   7.100        165.00	    14.071
   7.120        180.00	    14.697
   7.140        160.83	    13.892
   7.160        180.83	    14.731
   7.180        157.50	    13.748
   7.200        160.00	    13.856
   7.220        155.83	    13.675
   7.240        149.17	    13.379
   7.260        172.50	    14.387
   7.280        170.00	    14.283
   7.300        128.33	    12.410
   7.320        145.00	    13.191
   7.340        164.17	    14.036
   7.360        171.67	    14.353
   7.380        174.17	    14.457
   7.400        174.17	    14.457
   7.420        157.50	    13.748
   7.440        130.83	    12.530
   7.460        149.17	    13.379
   7.480        159.17	    13.820
   7.500        163.33	    14.000
   7.520        156.67	    13.711
   7.540        180.00	    14.697
   7.560        155.83	    13.675
   7.580        145.00	    13.191
   7.600        141.67	    13.038
   7.620        135.00	    12.728
   7.640        156.67	    13.711
   7.660        150.83	    13.454
   7.680        159.17	    13.820
   7.700        151.67	    13.491
   7.720        164.17	    14.036
   7.740        148.33	    13.342
   7.760        126.67	    12.329
   7.780        163.33	    14.000
   7.800        160.00	    13.856
   7.820        150.00	    13.416
   7.840        163.33	    14.000
   7.860        150.00	    13.416
   7.880        145.83	    13.229
   7.900        162.50	    13.964
   7.920        139.17	    12.923
   7.940        150.00	    13.416
   7.960        155.83	    13.675
   7.980        140.00	    12.961
   8.000        143.33	    13.115
   8.020        164.17	    14.036
   8.040        152.50	    13.528
   8.060        158.33	    13.784
   8.080        148.33	    13.342
   8.100        164.17	    14.036
   8.120        154.17	    13.601
   8.140        129.17	    12.450
   8.160        140.00	    12.961
   8.180        145.83	    13.229
   8.200        134.17	    12.689
   8.220        158.33	    13.784
   8.240        165.83	    14.107
   8.260        178.33	    14.629
   8.280        149.17	    13.379
   8.300        132.50	    12.610
   8.320        157.50	    13.748
   8.340        170.00	    14.283
   8.360        150.00	    13.416
   8.380        165.00	    14.071
   8.400        159.17	    13.820
   8.420        180.00	    14.697
   8.440        145.83	    13.229
   8.460        170.83	    14.318
   8.480        205.00	    15.684
   8.500        177.50	    14.595
   8.520        190.00	    15.100
   8.540        176.67	    14.560
   8.560        218.33	    16.186
   8.580        232.50	    16.703
   8.600        232.50	    16.703
   8.620        314.17	    19.416
   8.640        337.50	    20.125
   8.660        375.00	    21.213
   8.680        355.83	    20.664
   8.700        388.33	    21.587
   8.720        486.67	    24.166
   8.740        595.83	    26.739
   8.760        740.00	    29.799
   8.780        822.50	    31.417
   8.800        657.50	    28.089
   8.820        481.67	    24.042
   8.840        277.50	    18.248
   8.860        196.67	    15.362
   8.880        167.50	    14.177
   8.900        159.17	    13.820
   8.920        184.17	    14.866
   8.940        175.83	    14.526
   8.960        134.17	    12.689
   8.980        137.50	    12.845
   9.000        168.33	    14.213
   9.020        148.33	    13.342
   9.040        145.00	    13.191
   9.060        140.00	    12.961
   9.080        133.33	    12.649
   9.100        139.17	    12.923
   9.120        124.17	    12.207
   9.140        146.67	    13.266
   9.160        137.50	    12.845
   9.180        126.67	    12.329
   9.200        129.17	    12.450
   9.220        126.67	    12.329
   9.240        117.50	    11.874
   9.260        137.50	    12.845
   9.280        117.50	    11.874
   9.300        134.17	    12.689
   9.320        135.00	    12.728
   9.340        144.17	    13.153
   9.360        135.00	    12.728
   9.380        123.33	    12.166
   9.400        119.17	    11.958
   9.420        110.83	    11.533
   9.440        111.67	    11.576
   9.460        125.83	    12.288
   9.480        124.17	    12.207
   9.500        128.33	    12.410
   9.520        113.33	    11.662
   9.540        101.67	    11.045
   9.560        140.00	    12.961
   9.580        117.50	    11.874
   9.600        117.50	    11.874
   9.620        119.17	    11.958
   9.640        120.00	    12.000
   9.660        127.50	    12.369
   9.680        135.00	    12.728
   9.700        131.67	    12.570
   9.720        132.50	    12.610
   9.740        100.83	    11.000
   9.760        120.83	    12.042
   9.780        120.00	    12.000
   9.800        116.67	    11.832
   9.820        111.67	    11.576
   9.840        124.17	    12.207
   9.860        108.33	    11.402
   9.880        123.33	    12.166
   9.900        110.00	    11.489
   9.920        113.33	    11.662
   9.940        103.33	    11.136
   9.960        105.83	    11.269
   9.980        110.83	    11.533
  10.000        105.00	    11.225
  10.020        130.00	    12.490
  10.040        103.33	    11.136
  10.060         97.50	    10.817
  10.080        102.50	    11.091
  10.100        122.50	    12.124
  10.120        100.83	    11.000
  10.140         91.67	    10.488
  10.160        109.17	    11.446
  10.180        110.00	    11.489
  10.200        107.50	    11.358
  10.220        100.00	    10.954
  10.240         93.33	    10.583
  10.260        115.00	    11.747
  10.280        120.83	    12.042
  10.300        115.00	    11.747
  10.320        130.00	    12.490
  10.340        166.67	    14.142
  10.360        184.17	    14.866
  10.380        212.50	    15.969
  10.400        162.50	    13.964
  10.420        149.17	    13.379
  10.440        116.67	    11.832
  10.460        126.67	    12.329
  10.480        111.67	    11.576
  10.500        121.67	    12.083
  10.520        108.33	    11.402
  10.540        110.00	    11.489
  10.560         90.83	    10.440
  10.580         95.83	    10.724
  10.600        115.00	    11.747
  10.620        115.00	    11.747
  10.640        105.00	    11.225
  10.660        117.50	    11.874
  10.680         98.33	    10.863
  10.700        102.50	    11.091
  10.720        110.83	    11.533
  10.740        105.00	    11.225
  10.760        124.17	    12.207
  10.780        110.83	    11.533
  10.800         98.33	    10.863
  10.820        101.67	    11.045
  10.840         87.50	    10.247
  10.860        128.33	    12.410
  10.880         80.83	     9.849
  10.900        101.67	    11.045
  10.920        100.00	    10.954
  10.940        100.00	    10.954
  10.960        104.17	    11.180
  10.980         97.50	    10.817
  11.000        105.83	    11.269
  11.020        105.83	    11.269
  11.040         98.33	    10.863
  11.060        106.67	    11.314
  11.080         90.83	    10.440
  11.100         75.83	     9.539
  11.120        108.33	    11.402
  11.140         80.83	     9.849
  11.160         99.17	    10.909
  11.180         73.33	     9.381
  11.200         87.50	    10.247
  11.220        102.50	    11.091
  11.240         83.33	    10.000
  11.260         80.00	     9.798
  11.280         91.67	    10.488
  11.300         86.67	    10.198
  11.320         89.17	    10.344
  11.340         98.33	    10.863
  11.360        105.83	    11.269
  11.380         92.50	    10.536
  11.400         90.83	    10.440
  11.420        106.67	    11.314
  11.440        110.00	    11.489
  11.460         90.00	    10.392
  11.480         85.83	    10.149
  11.500        108.33	    11.402
  11.520         87.50	    10.247
  11.540         78.33	     9.695
  11.560         87.50	    10.247
  11.580        104.17	    11.180
  11.600        102.50	    11.091
  11.620         96.67	    10.770
  11.640         80.83	     9.849
  11.660         99.17	    10.909
  11.680         82.50	     9.950
  11.700         89.17	    10.344
  11.720        107.50	    11.358
  11.740         93.33	    10.583
  11.760         78.33	     9.695
  11.780         97.50	    10.817
  11.800        107.50	    11.358
  11.820        105.83	    11.269
  11.840        113.33	    11.662
  11.860         99.17	    10.909
  11.880        100.00	    10.954
  11.900        101.67	    11.045
  11.920         97.50	    10.817
  11.940        117.50	    11.874
  11.960        126.67	    12.329
  11.980        119.17	    11.958
  12.000        125.00	    12.247
  12.020        154.17	    13.601
  12.040        184.17	    14.866
  12.060        240.00	    16.971
  12.080        240.00	    16.971
  12.100        245.83	    17.176
  12.120        194.17	    15.264
  12.140        173.33	    14.422
  12.160        165.83	    14.107
  12.180        130.00	    12.490
  12.200        131.67	    12.570
  12.220        143.33	    13.115
  12.240        148.33	    13.342
  12.260        177.50	    14.595
  12.280        180.00	    14.697
  12.300        152.50	    13.528
  12.320        190.00	    15.100
  12.340        200.00	    15.492
  12.360        205.83	    15.716
  12.380        286.67	    18.547
  12.400        300.83	    19.000
  12.420        319.17	    19.570
  12.440        263.33	    17.776
  12.460        160.00	    13.856
  12.480        138.33	    12.884
  12.500        105.83	    11.269
  12.520        105.00	    11.225
  12.540         90.83	    10.440
  12.560         90.00	    10.392
  12.580         99.17	    10.909
  12.600        102.50	    11.091
  12.620        107.50	    11.358
  12.640         90.83	    10.440
  12.660        100.00	    10.954
  12.680         88.33	    10.296
  12.700         82.50	     9.950
  12.720         95.00	    10.677
  12.740         75.00	     9.487
  12.760         85.00	    10.100
  12.780        100.83	    11.000
  12.800         94.17	    10.630
  12.820         90.00	    10.392
  12.840         83.33	    10.000
  12.860         84.17	    10.050
  12.880         81.67	     9.899
  12.900         97.50	    10.817
  12.920         70.00	     9.165
  12.940         85.83	    10.149
  12.960         97.50	    10.817
  12.980        103.33	    11.136
  13.000        103.33	    11.136
  13.020         78.33	     9.695
  13.040         83.33	    10.000
  13.060        106.67	    11.314
  13.080         82.50	     9.950
  13.100         78.33	     9.695
  13.120         86.67	    10.198
  13.140         75.00	     9.487
  13.160         95.00	    10.677
  13.180         66.67	     8.944
  13.200         89.17	    10.344
  13.220         78.33	     9.695
  13.240         90.00	    10.392
  13.260         66.67	     8.944
  13.280         79.17	     9.747
  13.300        110.83	    11.533
  13.320         95.83	    10.724
  13.340         95.83	    10.724
  13.360         82.50	     9.950
  13.380         85.00	    10.100
  13.400         98.33	    10.863
  13.420         83.33	    10.000
  13.440         74.17	     9.434
  13.460         71.67	     9.274
  13.480         84.17	    10.050
  13.500         93.33	    10.583
  13.520        113.33	    11.662
  13.540        100.00	    10.954
  13.560        128.33	    12.410
  13.580        102.50	    11.091
  13.600         70.00	     9.165
  13.620         83.33	    10.000
  13.640         90.83	    10.440
  13.660         98.33	    10.863
  13.680         66.67	     8.944
  13.700         90.83	    10.440
  13.720        137.50	    12.845
  13.740        156.67	    13.711
  13.760        148.33	    13.342
  13.780        143.33	    13.115
  13.800        128.33	    12.410
  13.820        122.50	    12.124
  13.840        127.50	    12.369
  13.860        115.83	    11.790
  13.880        109.17	    11.446
  13.900         84.17	    10.050
  13.920         78.33	     9.695
  13.940         88.33	    10.296
  13.960         85.00	    10.100
  13.980        102.50	    11.091
  14.000         70.00	     9.165
  14.020         74.17	     9.434
  14.040         84.17	    10.050
  14.060         83.33	    10.000
  14.080         69.17	     9.110
  14.100         78.33	     9.695
  14.120         77.50	     9.644
  14.140         81.67	     9.899
  14.160         75.83	     9.539
  14.180         78.33	     9.695
  14.200         75.00	     9.487
  14.220         68.33	     9.055
  14.240         72.50	     9.327
  14.260         74.17	     9.434
  14.280         85.83	    10.149
  14.300         75.00	     9.487
  14.320         75.83	     9.539
  14.340         60.00	     8.485
  14.360         63.33	     8.718
  14.380         71.67	     9.274
  14.400         63.33	     8.718
