
Filename:
	C:\Program Files\Thermo Electron\WinXRD\Datafiles\F_HERMAN\GEO\G33_RT.raw

File Created:
	February 18, 2020 - 07:13 PM

Specimen Id:
	G33_RT

Specimen Name:
	

Specimen Description:
	

Comment:
Scan Type: 2Theta Scan
Start Angle: 3 deg.
Stop Angle: 65 deg.
Num Points: 3101
Step Size: 0.02 deg.
Scan Rate: 1.000000
Scan Mode: Continuous
Wavelength: 1.540562
\Kalpha1: 1.540562	\Kalpha2: 1.544390	\Kbeta: 1.392218

Optics:
		Detector:
			 Type: Fixed Slits
		Tube: 
			 Type: Fixed Slits


Datas:
 Pos [deg]       Rate [CPS]      ESD [-]

Range 1 ---> Iteration 1
   3.000        392.50	    21.703
   3.020        416.67	    22.361
   3.040        437.50	    22.913
   3.060        422.50	    22.517
   3.080        410.83	    22.204
   3.100        427.50	    22.650
   3.120        388.33	    21.587
   3.140        453.33	    23.324
   3.160        392.50	    21.703
   3.180        420.83	    22.472
   3.200        406.67	    22.091
   3.220        380.83	    21.378
   3.240        427.50	    22.650
   3.260        366.67	    20.976
   3.280        406.67	    22.091
   3.300        370.83	    21.095
   3.320        385.83	    21.517
   3.340        395.00	    21.772
   3.360        375.00	    21.213
   3.380        395.00	    21.772
   3.400        368.33	    21.024
   3.420        351.67	    20.543
   3.440        360.00	    20.785
   3.460        374.17	    21.190
   3.480        337.50	    20.125
   3.500        375.83	    21.237
   3.520        354.17	    20.616
   3.540        411.67	    22.226
   3.560        349.17	    20.469
   3.580        380.83	    21.378
   3.600        330.00	    19.900
   3.620        319.17	    19.570
   3.640        362.50	    20.857
   3.660        331.67	    19.950
   3.680        317.50	    19.519
   3.700        330.00	    19.900
   3.720        338.33	    20.149
   3.740        370.83	    21.095
   3.760        328.33	    19.849
   3.780        375.83	    21.237
   3.800        355.83	    20.664
   3.820        321.67	    19.647
   3.840        305.00	    19.131
   3.860        303.33	    19.079
   3.880        342.50	    20.273
   3.900        329.17	    19.875
   3.920        355.83	    20.664
   3.940        348.33	    20.445
   3.960        316.67	    19.494
   3.980        317.50	    19.519
   4.000        303.33	    19.079
   4.020        314.17	    19.416
   4.040        314.17	    19.416
   4.060        302.50	    19.053
   4.080        321.67	    19.647
   4.100        299.17	    18.947
   4.120        307.50	    19.209
   4.140        311.67	    19.339
   4.160        283.33	    18.439
   4.180        300.00	    18.974
   4.200        291.67	    18.708
   4.220        303.33	    19.079
   4.240        260.83	    17.692
   4.260        307.50	    19.209
   4.280        290.83	    18.682
   4.300        290.83	    18.682
   4.320        299.17	    18.947
   4.340        271.67	    18.055
   4.360        286.67	    18.547
   4.380        275.83	    18.193
   4.400        297.50	    18.894
   4.420        310.00	    19.287
   4.440        270.83	    18.028
   4.460        270.83	    18.028
   4.480        290.83	    18.682
   4.500        252.50	    17.407
   4.520        255.83	    17.521
   4.540        263.33	    17.776
   4.560        274.17	    18.138
   4.580        290.00	    18.655
   4.600        270.00	    18.000
   4.620        276.67	    18.221
   4.640        273.33	    18.111
   4.660        250.00	    17.321
   4.680        252.50	    17.407
   4.700        257.50	    17.578
   4.720        253.33	    17.436
   4.740        247.50	    17.234
   4.760        240.00	    16.971
   4.780        240.00	    16.971
   4.800        267.50	    17.916
   4.820        251.67	    17.378
   4.840        250.00	    17.321
   4.860        279.17	    18.303
   4.880        259.17	    17.635
   4.900        237.50	    16.882
   4.920        256.67	    17.550
   4.940        248.33	    17.263
   4.960        230.83	    16.643
   4.980        242.50	    17.059
   5.000        233.33	    16.733
   5.020        224.17	    16.401
   5.040        240.83	    17.000
   5.060        250.00	    17.321
   5.080        227.50	    16.523
   5.100        257.50	    17.578
   5.120        223.33	    16.371
   5.140        268.33	    17.944
   5.160        220.00	    16.248
   5.180        227.50	    16.523
   5.200        252.50	    17.407
   5.220        250.83	    17.349
   5.240        214.17	    16.031
   5.260        226.67	    16.492
   5.280        241.67	    17.029
   5.300        218.33	    16.186
   5.320        223.33	    16.371
   5.340        238.33	    16.912
   5.360        220.83	    16.279
   5.380        220.00	    16.248
   5.400        229.17	    16.583
   5.420        203.33	    15.620
   5.440        229.17	    16.583
   5.460        220.00	    16.248
   5.480        199.17	    15.460
   5.500        229.17	    16.583
   5.520        220.83	    16.279
   5.540        185.00	    14.900
   5.560        213.33	    16.000
   5.580        217.50	    16.155
   5.600        176.67	    14.560
   5.620        190.83	    15.133
   5.640        210.00	    15.875
   5.660        218.33	    16.186
   5.680        206.67	    15.748
   5.700        200.83	    15.524
   5.720        208.33	    15.811
   5.740        218.33	    16.186
   5.760        218.33	    16.186
   5.780        214.17	    16.031
   5.800        222.50	    16.340
   5.820        190.00	    15.100
   5.840        219.17	    16.217
   5.860        220.00	    16.248
   5.880        210.00	    15.875
   5.900        230.83	    16.643
   5.920        200.00	    15.492
   5.940        210.00	    15.875
   5.960        208.33	    15.811
   5.980        205.83	    15.716
   6.000        219.17	    16.217
   6.020        187.50	    15.000
   6.040        216.67	    16.125
   6.060        226.67	    16.492
   6.080        218.33	    16.186
   6.100        231.67	    16.673
   6.120        251.67	    17.378
   6.140        225.00	    16.432
   6.160        233.33	    16.733
   6.180        231.67	    16.673
   6.200        277.50	    18.248
   6.220        235.00	    16.793
   6.240        258.33	    17.607
   6.260        250.83	    17.349
   6.280        225.00	    16.432
   6.300        219.17	    16.217
   6.320        199.17	    15.460
   6.340        204.17	    15.652
   6.360        190.00	    15.100
   6.380        192.50	    15.199
   6.400        193.33	    15.232
   6.420        205.00	    15.684
   6.440        187.50	    15.000
   6.460        185.00	    14.900
   6.480        190.83	    15.133
   6.500        177.50	    14.595
   6.520        191.67	    15.166
   6.540        174.17	    14.457
   6.560        212.50	    15.969
   6.580        165.00	    14.071
   6.600        178.33	    14.629
   6.620        170.00	    14.283
   6.640        176.67	    14.560
   6.660        187.50	    15.000
   6.680        191.67	    15.166
   6.700        185.00	    14.900
   6.720        175.83	    14.526
   6.740        185.00	    14.900
   6.760        175.00	    14.491
   6.780        178.33	    14.629
   6.800        163.33	    14.000
   6.820        164.17	    14.036
   6.840        177.50	    14.595
   6.860        159.17	    13.820
   6.880        165.00	    14.071
   6.900        193.33	    15.232
   6.920        185.00	    14.900
   6.940        165.00	    14.071
   6.960        171.67	    14.353
   6.980        164.17	    14.036
   7.000        184.17	    14.866
   7.020        165.83	    14.107
   7.040        185.83	    14.933
   7.060        172.50	    14.387
   7.080        167.50	    14.177
   7.100        191.67	    15.166
   7.120        169.17	    14.248
   7.140        162.50	    13.964
   7.160        170.83	    14.318
   7.180        178.33	    14.629
   7.200        170.00	    14.283
   7.220        166.67	    14.142
   7.240        177.50	    14.595
   7.260        157.50	    13.748
   7.280        131.67	    12.570
   7.300        167.50	    14.177
   7.320        181.67	    14.765
   7.340        180.83	    14.731
   7.360        173.33	    14.422
   7.380        173.33	    14.422
   7.400        160.00	    13.856
   7.420        166.67	    14.142
   7.440        202.50	    15.588
   7.460        158.33	    13.784
   7.480        162.50	    13.964
   7.500        166.67	    14.142
   7.520        165.00	    14.071
   7.540        173.33	    14.422
   7.560        162.50	    13.964
   7.580        156.67	    13.711
   7.600        153.33	    13.565
   7.620        178.33	    14.629
   7.640        160.00	    13.856
   7.660        144.17	    13.153
   7.680        148.33	    13.342
   7.700        152.50	    13.528
   7.720        165.00	    14.071
   7.740        160.00	    13.856
   7.760        154.17	    13.601
   7.780        164.17	    14.036
   7.800        162.50	    13.964
   7.820        152.50	    13.528
   7.840        146.67	    13.266
   7.860        160.00	    13.856
   7.880        163.33	    14.000
   7.900        175.83	    14.526
   7.920        150.00	    13.416
   7.940        169.17	    14.248
   7.960        145.83	    13.229
   7.980        149.17	    13.379
   8.000        134.17	    12.689
   8.020        160.83	    13.892
   8.040        137.50	    12.845
   8.060        146.67	    13.266
   8.080        150.00	    13.416
   8.100        157.50	    13.748
   8.120        155.83	    13.675
   8.140        140.00	    12.961
   8.160        160.00	    13.856
   8.180        155.83	    13.675
   8.200        146.67	    13.266
   8.220        150.00	    13.416
   8.240        157.50	    13.748
   8.260        139.17	    12.923
   8.280        151.67	    13.491
   8.300        147.50	    13.304
   8.320        157.50	    13.748
   8.340        167.50	    14.177
   8.360        142.50	    13.077
   8.380        135.00	    12.728
   8.400        160.83	    13.892
   8.420        153.33	    13.565
   8.440        157.50	    13.748
   8.460        150.83	    13.454
   8.480        158.33	    13.784
   8.500        160.00	    13.856
   8.520        162.50	    13.964
   8.540        182.50	    14.799
   8.560        143.33	    13.115
   8.580        180.00	    14.697
   8.600        169.17	    14.248
   8.620        205.00	    15.684
   8.640        177.50	    14.595
   8.660        196.67	    15.362
   8.680        207.50	    15.780
   8.700        255.00	    17.493
   8.720        240.00	    16.971
   8.740        248.33	    17.263
   8.760        318.33	    19.545
   8.780        288.33	    18.601
   8.800        409.17	    22.159
   8.820        440.00	    22.978
   8.840        544.17	    25.554
   8.860        573.33	    26.230
   8.880        564.17	    26.019
   8.900        537.50	    25.397
   8.920        443.33	    23.065
   8.940        367.50	    21.000
   8.960        273.33	    18.111
   8.980        231.67	    16.673
   9.000        193.33	    15.232
   9.020        170.00	    14.283
   9.040        140.83	    13.000
   9.060        175.00	    14.491
   9.080        151.67	    13.491
   9.100        159.17	    13.820
   9.120        143.33	    13.115
   9.140        160.00	    13.856
   9.160        160.83	    13.892
   9.180        153.33	    13.565
   9.200        159.17	    13.820
   9.220        151.67	    13.491
   9.240        145.83	    13.229
   9.260        142.50	    13.077
   9.280        150.83	    13.454
   9.300        136.67	    12.806
   9.320        126.67	    12.329
   9.340        125.83	    12.288
   9.360        145.83	    13.229
   9.380        125.00	    12.247
   9.400        142.50	    13.077
   9.420        162.50	    13.964
   9.440        165.00	    14.071
   9.460        127.50	    12.369
   9.480        149.17	    13.379
   9.500        138.33	    12.884
   9.520        133.33	    12.649
   9.540        139.17	    12.923
   9.560        133.33	    12.649
   9.580        141.67	    13.038
   9.600        154.17	    13.601
   9.620        133.33	    12.649
   9.640        130.00	    12.490
   9.660        107.50	    11.358
   9.680        115.83	    11.790
   9.700        130.00	    12.490
   9.720        123.33	    12.166
   9.740        115.83	    11.790
   9.760        140.83	    13.000
   9.780        133.33	    12.649
   9.800        135.83	    12.767
   9.820        112.50	    11.619
   9.840        100.00	    10.954
   9.860        109.17	    11.446
   9.880        127.50	    12.369
   9.900        133.33	    12.649
   9.920        108.33	    11.402
   9.940        120.83	    12.042
   9.960        120.00	    12.000
   9.980        124.17	    12.207
  10.000        126.67	    12.329
  10.020        102.50	    11.091
  10.040        110.00	    11.489
  10.060        110.83	    11.533
  10.080        109.17	    11.446
  10.100        110.83	    11.533
  10.120        109.17	    11.446
  10.140        119.17	    11.958
  10.160        118.33	    11.916
  10.180        122.50	    12.124
  10.200        120.83	    12.042
  10.220         99.17	    10.909
  10.240        119.17	    11.958
  10.260        114.17	    11.705
  10.280        118.33	    11.916
  10.300        114.17	    11.705
  10.320        115.83	    11.790
  10.340        110.83	    11.533
  10.360        104.17	    11.180
  10.380        115.83	    11.790
  10.400        106.67	    11.314
  10.420        100.00	    10.954
  10.440        119.17	    11.958
  10.460        122.50	    12.124
  10.480        142.50	    13.077
  10.500        154.17	    13.601
  10.520        174.17	    14.457
  10.540        184.17	    14.866
  10.560        129.17	    12.450
  10.580        129.17	    12.450
  10.600        121.67	    12.083
  10.620        115.00	    11.747
  10.640        122.50	    12.124
  10.660        111.67	    11.576
  10.680        102.50	    11.091
  10.700         99.17	    10.909
  10.720        115.00	    11.747
  10.740        115.00	    11.747
  10.760        119.17	    11.958
  10.780        107.50	    11.358
  10.800        110.83	    11.533
  10.820        115.83	    11.790
  10.840        112.50	    11.619
  10.860         95.00	    10.677
  10.880         95.00	    10.677
  10.900        106.67	    11.314
  10.920         95.83	    10.724
  10.940        114.17	    11.705
  10.960         85.83	    10.149
  10.980        105.83	    11.269
  11.000        123.33	    12.166
  11.020        101.67	    11.045
  11.040        100.83	    11.000
  11.060        110.83	    11.533
  11.080        125.00	    12.247
  11.100        101.67	    11.045
  11.120        101.67	    11.045
  11.140         92.50	    10.536
  11.160        107.50	    11.358
  11.180        115.83	    11.790
  11.200        101.67	    11.045
  11.220        124.17	    12.207
  11.240        109.17	    11.446
  11.260        105.83	    11.269
  11.280        135.00	    12.728
  11.300         93.33	    10.583
  11.320        107.50	    11.358
  11.340        105.00	    11.225
  11.360         92.50	    10.536
  11.380         82.50	     9.950
  11.400        100.83	    11.000
  11.420        111.67	    11.576
  11.440        108.33	    11.402
  11.460        110.00	    11.489
  11.480        109.17	    11.446
  11.500        106.67	    11.314
  11.520         86.67	    10.198
  11.540        117.50	    11.874
  11.560        115.00	    11.747
  11.580         89.17	    10.344
  11.600        100.00	    10.954
  11.620         95.00	    10.677
  11.640        103.33	    11.136
  11.660        126.67	    12.329
  11.680         90.00	    10.392
  11.700        105.83	    11.269
  11.720        120.00	    12.000
  11.740        114.17	    11.705
  11.760        113.33	    11.662
  11.780        100.00	    10.954
  11.800        108.33	    11.402
  11.820        105.00	    11.225
  11.840         93.33	    10.583
  11.860        110.00	    11.489
  11.880        102.50	    11.091
  11.900        111.67	    11.576
  11.920        125.83	    12.288
  11.940        145.00	    13.191
  11.960        120.00	    12.000
  11.980        115.00	    11.747
  12.000        132.50	    12.610
  12.020        129.17	    12.450
  12.040        130.00	    12.490
  12.060        172.50	    14.387
  12.080        226.67	    16.492
  12.100        212.50	    15.969
  12.120        270.00	    18.000
  12.140        315.83	    19.468
  12.160        387.50	    21.564
  12.180        458.33	    23.452
  12.200        451.67	    23.281
  12.220        521.67	    25.020
  12.240        450.00	    23.238
  12.260        352.50	    20.567
  12.280        263.33	    17.776
  12.300        227.50	    16.523
  12.320        197.50	    15.395
  12.340        223.33	    16.371
  12.360        224.17	    16.401
  12.380        225.83	    16.462
  12.400        225.83	    16.462
  12.420        230.00	    16.613
  12.440        260.00	    17.664
  12.460        301.67	    19.026
  12.480        300.00	    18.974
  12.500        300.83	    19.000
  12.520        245.00	    17.146
  12.540        236.67	    16.852
  12.560        185.83	    14.933
  12.580        157.50	    13.748
  12.600        152.50	    13.528
  12.620        112.50	    11.619
  12.640         98.33	    10.863
  12.660        102.50	    11.091
  12.680         93.33	    10.583
  12.700        109.17	    11.446
  12.720         97.50	    10.817
  12.740        110.00	    11.489
  12.760         97.50	    10.817
  12.780        106.67	    11.314
  12.800        102.50	    11.091
  12.820         97.50	    10.817
  12.840         99.17	    10.909
  12.860        109.17	    11.446
  12.880        100.83	    11.000
  12.900         98.33	    10.863
  12.920        111.67	    11.576
  12.940        100.00	    10.954
  12.960         91.67	    10.488
  12.980         90.83	    10.440
  13.000        108.33	    11.402
  13.020         89.17	    10.344
  13.040         88.33	    10.296
  13.060         89.17	    10.344
  13.080         94.17	    10.630
  13.100         80.83	     9.849
  13.120         97.50	    10.817
  13.140         77.50	     9.644
  13.160         97.50	    10.817
  13.180         77.50	     9.644
  13.200        102.50	    11.091
  13.220         89.17	    10.344
  13.240         75.00	     9.487
  13.260         89.17	    10.344
  13.280         92.50	    10.536
  13.300         88.33	    10.296
  13.320         95.00	    10.677
  13.340         93.33	    10.583
  13.360         76.67	     9.592
  13.380         82.50	     9.950
  13.400         98.33	    10.863
  13.420         89.17	    10.344
  13.440        100.00	    10.954
  13.460        101.67	    11.045
  13.480         84.17	    10.050
  13.500         86.67	    10.198
  13.520        103.33	    11.136
  13.540         90.00	    10.392
  13.560        100.00	    10.954
  13.580         70.83	     9.220
  13.600         98.33	    10.863
  13.620         98.33	    10.863
  13.640         96.67	    10.770
  13.660         72.50	     9.327
  13.680         73.33	     9.381
  13.700         75.83	     9.539
  13.720         90.83	    10.440
  13.740         99.17	    10.909
  13.760         95.83	    10.724
  13.780        101.67	    11.045
  13.800        121.67	    12.083
  13.820         93.33	    10.583
  13.840        106.67	    11.314
  13.860        136.67	    12.806
  13.880         97.50	    10.817
  13.900        105.83	    11.269
  13.920        102.50	    11.091
  13.940         87.50	    10.247
  13.960         86.67	    10.198
  13.980         95.00	    10.677
  14.000         90.00	    10.392
  14.020         89.17	    10.344
  14.040         75.83	     9.539
  14.060         90.83	    10.440
  14.080         90.00	    10.392
  14.100         94.17	    10.630
  14.120         69.17	     9.110
  14.140         65.83	     8.888
  14.160         85.00	    10.100
  14.180         92.50	    10.536
  14.200         85.83	    10.149
  14.220         85.83	    10.149
  14.240         85.00	    10.100
  14.260         79.17	     9.747
  14.280         70.00	     9.165
  14.300        100.83	    11.000
  14.320         87.50	    10.247
  14.340         74.17	     9.434
  14.360         76.67	     9.592
  14.380         71.67	     9.274
  14.400         82.50	     9.950
