
Filename:
	C:\Program Files\Thermo Electron\WinXRD\Datafiles\F_HERMAN\GEO\G36_RT.raw

File Created:
	February 20, 2020 - 05:56 PM

Specimen Id:
	G36_RT

Specimen Name:
	

Specimen Description:
	

Comment:
Scan Type: 2Theta Scan
Start Angle: 3 deg.
Stop Angle: 65 deg.
Num Points: 3101
Step Size: 0.02 deg.
Scan Rate: 1.000000
Scan Mode: Continuous
Wavelength: 1.540562
\Kalpha1: 1.540562	\Kalpha2: 1.544390	\Kbeta: 1.392218

Optics:
		Detector:
			 Type: Fixed Slits
		Tube: 
			 Type: Fixed Slits


Datas:
 Pos [deg]       Rate [CPS]      ESD [-]

Range 1 ---> Iteration 1
   3.000        461.67	    23.537
   3.020        436.67	    22.891
   3.040        435.00	    22.847
   3.060        473.33	    23.833
   3.080        423.33	    22.539
   3.100        428.33	    22.672
   3.120        425.00	    22.583
   3.140        425.83	    22.605
   3.160        420.83	    22.472
   3.180        447.50	    23.173
   3.200        416.67	    22.361
   3.220        415.83	    22.338
   3.240        411.67	    22.226
   3.260        400.83	    21.932
   3.280        410.83	    22.204
   3.300        388.33	    21.587
   3.320        372.50	    21.142
   3.340        385.83	    21.517
   3.360        418.33	    22.405
   3.380        351.67	    20.543
   3.400        344.17	    20.322
   3.420        349.17	    20.469
   3.440        393.33	    21.726
   3.460        357.50	    20.712
   3.480        374.17	    21.190
   3.500        359.17	    20.761
   3.520        393.33	    21.726
   3.540        355.00	    20.640
   3.560        352.50	    20.567
   3.580        352.50	    20.567
   3.600        381.67	    21.401
   3.620        330.83	    19.925
   3.640        315.83	    19.468
   3.660        350.00	    20.494
   3.680        362.50	    20.857
   3.700        335.00	    20.050
   3.720        344.17	    20.322
   3.740        325.00	    19.748
   3.760        309.17	    19.261
   3.780        344.17	    20.322
   3.800        322.50	    19.672
   3.820        300.83	    19.000
   3.840        359.17	    20.761
   3.860        292.50	    18.735
   3.880        319.17	    19.570
   3.900        305.83	    19.157
   3.920        324.17	    19.723
   3.940        320.83	    19.621
   3.960        297.50	    18.894
   3.980        325.00	    19.748
   4.000        300.83	    19.000
   4.020        296.67	    18.868
   4.040        296.67	    18.868
   4.060        314.17	    19.416
   4.080        306.67	    19.183
   4.100        318.33	    19.545
   4.120        291.67	    18.708
   4.140        301.67	    19.026
   4.160        300.83	    19.000
   4.180        287.50	    18.574
   4.200        275.83	    18.193
   4.220        287.50	    18.574
   4.240        317.50	    19.519
   4.260        284.17	    18.466
   4.280        295.83	    18.841
   4.300        252.50	    17.407
   4.320        266.67	    17.889
   4.340        269.17	    17.972
   4.360        273.33	    18.111
   4.380        280.00	    18.330
   4.400        273.33	    18.111
   4.420        245.00	    17.146
   4.440        269.17	    17.972
   4.460        287.50	    18.574
   4.480        277.50	    18.248
   4.500        267.50	    17.916
   4.520        283.33	    18.439
   4.540        262.50	    17.748
   4.560        255.83	    17.521
   4.580        235.00	    16.793
   4.600        290.83	    18.682
   4.620        245.83	    17.176
   4.640        235.00	    16.793
   4.660        280.00	    18.330
   4.680        288.33	    18.601
   4.700        250.83	    17.349
   4.720        246.67	    17.205
   4.740        250.83	    17.349
   4.760        259.17	    17.635
   4.780        225.00	    16.432
   4.800        249.17	    17.292
   4.820        242.50	    17.059
   4.840        234.17	    16.763
   4.860        250.00	    17.321
   4.880        250.00	    17.321
   4.900        261.67	    17.720
   4.920        247.50	    17.234
   4.940        255.00	    17.493
   4.960        240.83	    17.000
   4.980        239.17	    16.941
   5.000        271.67	    18.055
   5.020        240.00	    16.971
   5.040        240.83	    17.000
   5.060        238.33	    16.912
   5.080        242.50	    17.059
   5.100        221.67	    16.310
   5.120        237.50	    16.882
   5.140        254.17	    17.464
   5.160        226.67	    16.492
   5.180        228.33	    16.553
   5.200        215.00	    16.062
   5.220        212.50	    15.969
   5.240        221.67	    16.310
   5.260        211.67	    15.937
   5.280        215.83	    16.093
   5.300        224.17	    16.401
   5.320        250.83	    17.349
   5.340        234.17	    16.763
   5.360        205.83	    15.716
   5.380        214.17	    16.031
   5.400        218.33	    16.186
   5.420        233.33	    16.733
   5.440        215.83	    16.093
   5.460        230.83	    16.643
   5.480        197.50	    15.395
   5.500        237.50	    16.882
   5.520        183.33	    14.832
   5.540        205.00	    15.684
   5.560        220.83	    16.279
   5.580        204.17	    15.652
   5.600        234.17	    16.763
   5.620        215.00	    16.062
   5.640        230.00	    16.613
   5.660        203.33	    15.620
   5.680        205.00	    15.684
   5.700        205.83	    15.716
   5.720        211.67	    15.937
   5.740        215.00	    16.062
   5.760        216.67	    16.125
   5.780        212.50	    15.969
   5.800        189.17	    15.067
   5.820        199.17	    15.460
   5.840        202.50	    15.588
   5.860        201.67	    15.556
   5.880        201.67	    15.556
   5.900        194.17	    15.264
   5.920        196.67	    15.362
   5.940        194.17	    15.264
   5.960        187.50	    15.000
   5.980        208.33	    15.811
   6.000        182.50	    14.799
   6.020        205.83	    15.716
   6.040        219.17	    16.217
   6.060        186.67	    14.967
   6.080        233.33	    16.733
   6.100        215.83	    16.093
   6.120        220.83	    16.279
   6.140        220.83	    16.279
   6.160        235.00	    16.793
   6.180        222.50	    16.340
   6.200        210.00	    15.875
   6.220        195.83	    15.330
   6.240        194.17	    15.264
   6.260        193.33	    15.232
   6.280        197.50	    15.395
   6.300        176.67	    14.560
   6.320        147.50	    13.304
   6.340        189.17	    15.067
   6.360        180.83	    14.731
   6.380        200.83	    15.524
   6.400        197.50	    15.395
   6.420        178.33	    14.629
   6.440        193.33	    15.232
   6.460        202.50	    15.588
   6.480        182.50	    14.799
   6.500        172.50	    14.387
   6.520        176.67	    14.560
   6.540        179.17	    14.663
   6.560        156.67	    13.711
   6.580        177.50	    14.595
   6.600        179.17	    14.663
   6.620        181.67	    14.765
   6.640        173.33	    14.422
   6.660        193.33	    15.232
   6.680        175.00	    14.491
   6.700        165.00	    14.071
   6.720        175.83	    14.526
   6.740        175.83	    14.526
   6.760        160.00	    13.856
   6.780        172.50	    14.387
   6.800        184.17	    14.866
   6.820        175.83	    14.526
   6.840        165.00	    14.071
   6.860        161.67	    13.928
   6.880        172.50	    14.387
   6.900        187.50	    15.000
   6.920        170.83	    14.318
   6.940        150.83	    13.454
   6.960        156.67	    13.711
   6.980        185.00	    14.900
   7.000        170.00	    14.283
   7.020        178.33	    14.629
   7.040        155.83	    13.675
   7.060        177.50	    14.595
   7.080        160.83	    13.892
   7.100        158.33	    13.784
   7.120        180.00	    14.697
   7.140        158.33	    13.784
   7.160        161.67	    13.928
   7.180        143.33	    13.115
   7.200        143.33	    13.115
   7.220        170.83	    14.318
   7.240        166.67	    14.142
   7.260        141.67	    13.038
   7.280        153.33	    13.565
   7.300        155.83	    13.675
   7.320        168.33	    14.213
   7.340        160.83	    13.892
   7.360        140.83	    13.000
   7.380        149.17	    13.379
   7.400        160.00	    13.856
   7.420        152.50	    13.528
   7.440        151.67	    13.491
   7.460        144.17	    13.153
   7.480        160.00	    13.856
   7.500        126.67	    12.329
   7.520        143.33	    13.115
   7.540        150.00	    13.416
   7.560        135.00	    12.728
   7.580        137.50	    12.845
   7.600        149.17	    13.379
   7.620        172.50	    14.387
   7.640        143.33	    13.115
   7.660        153.33	    13.565
   7.680        150.00	    13.416
   7.700        148.33	    13.342
   7.720        155.83	    13.675
   7.740        146.67	    13.266
   7.760        124.17	    12.207
   7.780        130.00	    12.490
   7.800        134.17	    12.689
   7.820        149.17	    13.379
   7.840        141.67	    13.038
   7.860        141.67	    13.038
   7.880        129.17	    12.450
   7.900        135.83	    12.767
   7.920        136.67	    12.806
   7.940        128.33	    12.410
   7.960        146.67	    13.266
   7.980        145.00	    13.191
   8.000        137.50	    12.845
   8.020        139.17	    12.923
   8.040        162.50	    13.964
   8.060        138.33	    12.884
   8.080        137.50	    12.845
   8.100        135.00	    12.728
   8.120        132.50	    12.610
   8.140        120.00	    12.000
   8.160        141.67	    13.038
   8.180        145.00	    13.191
   8.200        153.33	    13.565
   8.220        131.67	    12.570
   8.240        150.83	    13.454
   8.260        139.17	    12.923
   8.280        149.17	    13.379
   8.300        140.83	    13.000
   8.320        152.50	    13.528
   8.340        140.83	    13.000
   8.360        145.83	    13.229
   8.380        146.67	    13.266
   8.400        155.83	    13.675
   8.420        158.33	    13.784
   8.440        135.00	    12.728
   8.460        165.00	    14.071
   8.480        147.50	    13.304
   8.500        148.33	    13.342
   8.520        145.83	    13.229
   8.540        148.33	    13.342
   8.560        179.17	    14.663
   8.580        184.17	    14.866
   8.600        168.33	    14.213
   8.620        196.67	    15.362
   8.640        207.50	    15.780
   8.660        230.83	    16.643
   8.680        244.17	    17.117
   8.700        271.67	    18.055
   8.720        289.17	    18.628
   8.740        311.67	    19.339
   8.760        405.00	    22.045
   8.780        552.50	    25.749
   8.800        536.67	    25.377
   8.820        505.83	    24.637
   8.840        321.67	    19.647
   8.860        204.17	    15.652
   8.880        153.33	    13.565
   8.900        155.00	    13.638
   8.920        157.50	    13.748
   8.940        160.83	    13.892
   8.960        151.67	    13.491
   8.980        135.83	    12.767
   9.000        138.33	    12.884
   9.020        140.00	    12.961
   9.040        133.33	    12.649
   9.060        148.33	    13.342
   9.080        150.83	    13.454
   9.100        135.83	    12.767
   9.120        124.17	    12.207
   9.140        129.17	    12.450
   9.160        119.17	    11.958
   9.180        117.50	    11.874
   9.200        110.00	    11.489
   9.220        116.67	    11.832
   9.240        116.67	    11.832
   9.260        122.50	    12.124
   9.280        119.17	    11.958
   9.300        134.17	    12.689
   9.320        143.33	    13.115
   9.340        125.00	    12.247
   9.360        113.33	    11.662
   9.380        123.33	    12.166
   9.400        115.00	    11.747
   9.420        148.33	    13.342
   9.440        118.33	    11.916
   9.460        115.00	    11.747
   9.480        106.67	    11.314
   9.500        100.83	    11.000
   9.520        109.17	    11.446
   9.540        118.33	    11.916
   9.560        104.17	    11.180
   9.580        110.83	    11.533
   9.600        121.67	    12.083
   9.620        115.83	    11.790
   9.640        116.67	    11.832
   9.660        104.17	    11.180
   9.680        136.67	    12.806
   9.700        115.83	    11.790
   9.720        135.00	    12.728
   9.740        100.83	    11.000
   9.760        112.50	    11.619
   9.780        116.67	    11.832
   9.800        121.67	    12.083
   9.820        120.83	    12.042
   9.840        112.50	    11.619
   9.860         95.00	    10.677
   9.880        108.33	    11.402
   9.900        108.33	    11.402
   9.920         84.17	    10.050
   9.940        124.17	    12.207
   9.960         92.50	    10.536
   9.980        105.00	    11.225
  10.000        109.17	    11.446
  10.020        104.17	    11.180
  10.040         94.17	    10.630
  10.060        116.67	    11.832
  10.080         95.83	    10.724
  10.100        115.83	    11.790
  10.120        119.17	    11.958
  10.140        117.50	    11.874
  10.160         98.33	    10.863
  10.180         98.33	    10.863
  10.200         99.17	    10.909
  10.220        110.00	    11.489
  10.240        104.17	    11.180
  10.260        107.50	    11.358
  10.280        115.00	    11.747
  10.300        122.50	    12.124
  10.320         90.83	    10.440
  10.340        117.50	    11.874
  10.360        111.67	    11.576
  10.380        109.17	    11.446
  10.400        144.17	    13.153
  10.420        190.00	    15.100
  10.440        287.50	    18.574
  10.460        190.00	    15.100
  10.480        171.67	    14.353
  10.500        130.83	    12.530
  10.520        112.50	    11.619
  10.540        108.33	    11.402
  10.560        108.33	    11.402
  10.580        115.83	    11.790
  10.600        100.83	    11.000
  10.620        102.50	    11.091
  10.640        110.83	    11.533
  10.660        106.67	    11.314
  10.680         95.00	    10.677
  10.700        102.50	    11.091
  10.720         89.17	    10.344
  10.740        105.00	    11.225
  10.760         89.17	    10.344
  10.780        114.17	    11.705
  10.800         85.83	    10.149
  10.820         91.67	    10.488
  10.840        103.33	    11.136
  10.860        101.67	    11.045
  10.880         94.17	    10.630
  10.900        105.83	    11.269
  10.920        110.83	    11.533
  10.940         86.67	    10.198
  10.960         97.50	    10.817
  10.980        101.67	    11.045
  11.000        103.33	    11.136
  11.020        104.17	    11.180
  11.040         88.33	    10.296
  11.060         87.50	    10.247
  11.080         92.50	    10.536
  11.100         97.50	    10.817
  11.120         96.67	    10.770
  11.140         89.17	    10.344
  11.160         92.50	    10.536
  11.180         94.17	    10.630
  11.200         73.33	     9.381
  11.220         86.67	    10.198
  11.240         92.50	    10.536
  11.260         99.17	    10.909
  11.280         96.67	    10.770
  11.300         90.00	    10.392
  11.320         97.50	    10.817
  11.340         79.17	     9.747
  11.360         80.83	     9.849
  11.380         80.00	     9.798
  11.400         88.33	    10.296
  11.420         87.50	    10.247
  11.440         88.33	    10.296
  11.460         93.33	    10.583
  11.480         87.50	    10.247
  11.500         72.50	     9.327
  11.520         95.83	    10.724
  11.540         90.83	    10.440
  11.560        102.50	    11.091
  11.580        103.33	    11.136
  11.600         95.00	    10.677
  11.620        103.33	    11.136
  11.640         85.83	    10.149
  11.660         96.67	    10.770
  11.680         85.83	    10.149
  11.700         93.33	    10.583
  11.720         95.00	    10.677
  11.740         90.83	    10.440
  11.760         71.67	     9.274
  11.780         71.67	     9.274
  11.800         88.33	    10.296
  11.820         88.33	    10.296
  11.840         95.00	    10.677
  11.860        105.00	    11.225
  11.880         81.67	     9.899
  11.900         90.83	    10.440
  11.920         91.67	    10.488
  11.940        118.33	    11.916
  11.960        101.67	    11.045
  11.980        104.17	    11.180
  12.000        112.50	    11.619
  12.020        112.50	    11.619
  12.040        171.67	    14.353
  12.060        199.17	    15.460
  12.080        233.33	    16.733
  12.100        285.83	    18.520
  12.120        304.17	    19.105
  12.140        255.00	    17.493
  12.160        163.33	    14.000
  12.180        135.00	    12.728
  12.200        145.83	    13.229
  12.220        118.33	    11.916
  12.240        145.83	    13.229
  12.260        176.67	    14.560
  12.280        140.83	    13.000
  12.300        154.17	    13.601
  12.320        150.83	    13.454
  12.340        158.33	    13.784
  12.360        164.17	    14.036
  12.380        186.67	    14.967
  12.400        239.17	    16.941
  12.420        233.33	    16.733
  12.440        180.83	    14.731
  12.460        165.00	    14.071
  12.480         97.50	    10.817
  12.500        109.17	    11.446
  12.520        107.50	    11.358
  12.540        105.00	    11.225
  12.560         97.50	    10.817
  12.580         82.50	     9.950
  12.600         87.50	    10.247
  12.620         78.33	     9.695
  12.640         93.33	    10.583
  12.660         90.83	    10.440
  12.680         80.83	     9.849
  12.700         80.83	     9.849
  12.720         97.50	    10.817
  12.740         82.50	     9.950
  12.760         79.17	     9.747
  12.780         85.83	    10.149
  12.800         80.83	     9.849
  12.820         79.17	     9.747
  12.840         87.50	    10.247
  12.860         83.33	    10.000
  12.880         80.00	     9.798
  12.900         98.33	    10.863
  12.920         85.00	    10.100
  12.940         85.83	    10.149
  12.960         64.17	     8.775
  12.980         78.33	     9.695
  13.000         73.33	     9.381
  13.020         90.83	    10.440
  13.040         75.00	     9.487
  13.060         75.83	     9.539
  13.080         94.17	    10.630
  13.100         70.83	     9.220
  13.120         73.33	     9.381
  13.140         81.67	     9.899
  13.160         78.33	     9.695
  13.180         95.00	    10.677
  13.200         60.83	     8.544
  13.220         80.83	     9.849
  13.240         74.17	     9.434
  13.260         85.00	    10.100
  13.280         92.50	    10.536
  13.300         75.83	     9.539
  13.320         88.33	    10.296
  13.340         76.67	     9.592
  13.360         62.50	     8.660
  13.380         69.17	     9.110
  13.400         80.00	     9.798
  13.420         75.00	     9.487
  13.440         60.83	     8.544
  13.460         82.50	     9.950
  13.480         65.83	     8.888
  13.500         93.33	    10.583
  13.520         82.50	     9.950
  13.540         80.00	     9.798
  13.560         80.83	     9.849
  13.580         97.50	    10.817
  13.600         84.17	    10.050
  13.620         84.17	    10.050
  13.640         71.67	     9.274
  13.660         85.00	    10.100
  13.680         85.83	    10.149
  13.700         84.17	    10.050
  13.720         93.33	    10.583
  13.740         81.67	     9.899
  13.760         95.83	    10.724
  13.780        111.67	    11.576
  13.800         95.00	    10.677
  13.820        105.00	    11.225
  13.840         90.00	    10.392
  13.860         92.50	    10.536
  13.880         93.33	    10.583
  13.900         84.17	    10.050
  13.920         86.67	    10.198
  13.940         73.33	     9.381
  13.960         73.33	     9.381
  13.980         70.83	     9.220
  14.000         73.33	     9.381
  14.020         74.17	     9.434
  14.040         71.67	     9.274
  14.060         65.83	     8.888
  14.080         74.17	     9.434
  14.100         62.50	     8.660
  14.120         61.67	     8.602
  14.140         62.50	     8.660
  14.160         64.17	     8.775
  14.180         65.00	     8.832
  14.200         69.17	     9.110
  14.220         61.67	     8.602
  14.240         64.17	     8.775
  14.260         75.00	     9.487
  14.280         74.17	     9.434
  14.300         60.00	     8.485
  14.320         70.83	     9.220
  14.340         75.00	     9.487
  14.360         66.67	     8.944
  14.380         61.67	     8.602
  14.400         70.00	     9.165
