
Filename:
	C:\Program Files\Thermo Electron\WinXRD\Datafiles\F_HERMAN\GEO\G37_RT.raw

File Created:
	February 18, 2020 - 08:15 PM

Specimen Id:
	G37_RT

Specimen Name:
	

Specimen Description:
	

Comment:
Scan Type: 2Theta Scan
Start Angle: 3 deg.
Stop Angle: 65 deg.
Num Points: 3101
Step Size: 0.02 deg.
Scan Rate: 1.000000
Scan Mode: Continuous
Wavelength: 1.540562
\Kalpha1: 1.540562	\Kalpha2: 1.544390	\Kbeta: 1.392218

Optics:
		Detector:
			 Type: Fixed Slits
		Tube: 
			 Type: Fixed Slits


Datas:
 Pos [deg]       Rate [CPS]      ESD [-]

Range 1 ---> Iteration 1
   3.000        425.83	    22.605
   3.020        394.17	    21.749
   3.040        415.83	    22.338
   3.060        388.33	    21.587
   3.080        418.33	    22.405
   3.100        381.67	    21.401
   3.120        390.83	    21.656
   3.140        410.00	    22.181
   3.160        385.83	    21.517
   3.180        371.67	    21.119
   3.200        380.00	    21.354
   3.220        373.33	    21.166
   3.240        376.67	    21.260
   3.260        385.83	    21.517
   3.280        360.00	    20.785
   3.300        360.83	    20.809
   3.320        360.83	    20.809
   3.340        373.33	    21.166
   3.360        368.33	    21.024
   3.380        345.83	    20.372
   3.400        373.33	    21.166
   3.420        380.00	    21.354
   3.440        347.50	    20.421
   3.460        384.17	    21.471
   3.480        339.17	    20.174
   3.500        335.00	    20.050
   3.520        341.67	    20.248
   3.540        317.50	    19.519
   3.560        340.00	    20.199
   3.580        305.00	    19.131
   3.600        341.67	    20.248
   3.620        344.17	    20.322
   3.640        306.67	    19.183
   3.660        317.50	    19.519
   3.680        306.67	    19.183
   3.700        318.33	    19.545
   3.720        315.00	    19.442
   3.740        302.50	    19.053
   3.760        295.83	    18.841
   3.780        304.17	    19.105
   3.800        292.50	    18.735
   3.820        288.33	    18.601
   3.840        311.67	    19.339
   3.860        281.67	    18.385
   3.880        310.83	    19.313
   3.900        328.33	    19.849
   3.920        304.17	    19.105
   3.940        281.67	    18.385
   3.960        276.67	    18.221
   3.980        317.50	    19.519
   4.000        278.33	    18.276
   4.020        276.67	    18.221
   4.040        290.00	    18.655
   4.060        285.83	    18.520
   4.080        278.33	    18.276
   4.100        260.83	    17.692
   4.120        280.00	    18.330
   4.140        268.33	    17.944
   4.160        282.50	    18.412
   4.180        277.50	    18.248
   4.200        295.00	    18.815
   4.220        288.33	    18.601
   4.240        257.50	    17.578
   4.260        260.83	    17.692
   4.280        288.33	    18.601
   4.300        302.50	    19.053
   4.320        240.00	    16.971
   4.340        264.17	    17.804
   4.360        232.50	    16.703
   4.380        245.00	    17.146
   4.400        283.33	    18.439
   4.420        264.17	    17.804
   4.440        250.83	    17.349
   4.460        260.83	    17.692
   4.480        254.17	    17.464
   4.500        230.83	    16.643
   4.520        239.17	    16.941
   4.540        274.17	    18.138
   4.560        277.50	    18.248
   4.580        245.00	    17.146
   4.600        235.00	    16.793
   4.620        235.83	    16.823
   4.640        228.33	    16.553
   4.660        210.00	    15.875
   4.680        245.00	    17.146
   4.700        239.17	    16.941
   4.720        253.33	    17.436
   4.740        212.50	    15.969
   4.760        230.83	    16.643
   4.780        236.67	    16.852
   4.800        231.67	    16.673
   4.820        241.67	    17.029
   4.840        230.00	    16.613
   4.860        230.00	    16.613
   4.880        206.67	    15.748
   4.900        242.50	    17.059
   4.920        201.67	    15.556
   4.940        225.00	    16.432
   4.960        220.83	    16.279
   4.980        225.83	    16.462
   5.000        228.33	    16.553
   5.020        223.33	    16.371
   5.040        244.17	    17.117
   5.060        225.83	    16.462
   5.080        219.17	    16.217
   5.100        216.67	    16.125
   5.120        227.50	    16.523
   5.140        224.17	    16.401
   5.160        226.67	    16.492
   5.180        196.67	    15.362
   5.200        195.00	    15.297
   5.220        214.17	    16.031
   5.240        205.00	    15.684
   5.260        212.50	    15.969
   5.280        191.67	    15.166
   5.300        195.00	    15.297
   5.320        195.00	    15.297
   5.340        207.50	    15.780
   5.360        215.00	    16.062
   5.380        200.83	    15.524
   5.400        202.50	    15.588
   5.420        220.83	    16.279
   5.440        213.33	    16.000
   5.460        213.33	    16.000
   5.480        223.33	    16.371
   5.500        195.83	    15.330
   5.520        207.50	    15.780
   5.540        189.17	    15.067
   5.560        203.33	    15.620
   5.580        190.00	    15.100
   5.600        195.00	    15.297
   5.620        201.67	    15.556
   5.640        202.50	    15.588
   5.660        187.50	    15.000
   5.680        167.50	    14.177
   5.700        200.83	    15.524
   5.720        192.50	    15.199
   5.740        193.33	    15.232
   5.760        200.83	    15.524
   5.780        189.17	    15.067
   5.800        178.33	    14.629
   5.820        190.83	    15.133
   5.840        185.00	    14.900
   5.860        180.00	    14.697
   5.880        200.83	    15.524
   5.900        195.00	    15.297
   5.920        170.83	    14.318
   5.940        184.17	    14.866
   5.960        200.00	    15.492
   5.980        196.67	    15.362
   6.000        165.83	    14.107
   6.020        157.50	    13.748
   6.040        180.00	    14.697
   6.060        193.33	    15.232
   6.080        172.50	    14.387
   6.100        180.83	    14.731
   6.120        179.17	    14.663
   6.140        193.33	    15.232
   6.160        175.00	    14.491
   6.180        204.17	    15.652
   6.200        199.17	    15.460
   6.220        194.17	    15.264
   6.240        190.00	    15.100
   6.260        197.50	    15.395
   6.280        184.17	    14.866
   6.300        176.67	    14.560
   6.320        172.50	    14.387
   6.340        160.00	    13.856
   6.360        170.83	    14.318
   6.380        188.33	    15.033
   6.400        180.83	    14.731
   6.420        169.17	    14.248
   6.440        176.67	    14.560
   6.460        173.33	    14.422
   6.480        167.50	    14.177
   6.500        171.67	    14.353
   6.520        165.83	    14.107
   6.540        160.83	    13.892
   6.560        150.83	    13.454
   6.580        152.50	    13.528
   6.600        155.00	    13.638
   6.620        158.33	    13.784
   6.640        160.00	    13.856
   6.660        157.50	    13.748
   6.680        159.17	    13.820
   6.700        153.33	    13.565
   6.720        170.00	    14.283
   6.740        154.17	    13.601
   6.760        164.17	    14.036
   6.780        160.83	    13.892
   6.800        145.83	    13.229
   6.820        149.17	    13.379
   6.840        153.33	    13.565
   6.860        176.67	    14.560
   6.880        156.67	    13.711
   6.900        156.67	    13.711
   6.920        164.17	    14.036
   6.940        172.50	    14.387
   6.960        145.83	    13.229
   6.980        177.50	    14.595
   7.000        171.67	    14.353
   7.020        164.17	    14.036
   7.040        145.83	    13.229
   7.060        168.33	    14.213
   7.080        155.83	    13.675
   7.100        150.00	    13.416
   7.120        176.67	    14.560
   7.140        130.00	    12.490
   7.160        152.50	    13.528
   7.180        129.17	    12.450
   7.200        160.00	    13.856
   7.220        127.50	    12.369
   7.240        153.33	    13.565
   7.260        135.83	    12.767
   7.280        142.50	    13.077
   7.300        151.67	    13.491
   7.320        134.17	    12.689
   7.340        140.83	    13.000
   7.360        127.50	    12.369
   7.380        162.50	    13.964
   7.400        137.50	    12.845
   7.420        131.67	    12.570
   7.440        162.50	    13.964
   7.460        136.67	    12.806
   7.480        129.17	    12.450
   7.500        138.33	    12.884
   7.520        139.17	    12.923
   7.540        140.00	    12.961
   7.560        150.00	    13.416
   7.580        122.50	    12.124
   7.600        125.83	    12.288
   7.620        158.33	    13.784
   7.640        144.17	    13.153
   7.660        155.83	    13.675
   7.680        131.67	    12.570
   7.700        150.83	    13.454
   7.720        117.50	    11.874
   7.740        149.17	    13.379
   7.760        135.83	    12.767
   7.780        133.33	    12.649
   7.800        132.50	    12.610
   7.820        124.17	    12.207
   7.840        126.67	    12.329
   7.860        131.67	    12.570
   7.880        140.00	    12.961
   7.900        136.67	    12.806
   7.920        130.00	    12.490
   7.940        121.67	    12.083
   7.960        116.67	    11.832
   7.980        124.17	    12.207
   8.000        129.17	    12.450
   8.020        125.00	    12.247
   8.040        158.33	    13.784
   8.060        134.17	    12.689
   8.080        115.00	    11.747
   8.100        131.67	    12.570
   8.120        140.00	    12.961
   8.140        117.50	    11.874
   8.160        132.50	    12.610
   8.180        108.33	    11.402
   8.200        137.50	    12.845
   8.220        121.67	    12.083
   8.240        124.17	    12.207
   8.260        136.67	    12.806
   8.280        134.17	    12.689
   8.300        140.00	    12.961
   8.320        126.67	    12.329
   8.340        117.50	    11.874
   8.360        116.67	    11.832
   8.380        125.00	    12.247
   8.400        135.83	    12.767
   8.420        140.83	    13.000
   8.440        128.33	    12.410
   8.460        151.67	    13.491
   8.480        120.00	    12.000
   8.500        136.67	    12.806
   8.520        123.33	    12.166
   8.540        138.33	    12.884
   8.560        136.67	    12.806
   8.580        125.83	    12.288
   8.600        137.50	    12.845
   8.620        159.17	    13.820
   8.640        124.17	    12.207
   8.660        155.83	    13.675
   8.680        151.67	    13.491
   8.700        163.33	    14.000
   8.720        189.17	    15.067
   8.740        195.83	    15.330
   8.760        182.50	    14.799
   8.780        211.67	    15.937
   8.800        245.00	    17.146
   8.820        266.67	    17.889
   8.840        343.33	    20.298
   8.860        345.83	    20.372
   8.880        301.67	    19.026
   8.900        223.33	    16.371
   8.920        201.67	    15.556
   8.940        122.50	    12.124
   8.960        127.50	    12.369
   8.980        121.67	    12.083
   9.000        130.00	    12.490
   9.020        117.50	    11.874
   9.040        115.00	    11.747
   9.060        110.00	    11.489
   9.080        105.83	    11.269
   9.100        117.50	    11.874
   9.120        125.83	    12.288
   9.140        114.17	    11.705
   9.160        119.17	    11.958
   9.180        118.33	    11.916
   9.200         96.67	    10.770
   9.220        107.50	    11.358
   9.240        104.17	    11.180
   9.260        100.83	    11.000
   9.280        125.00	    12.247
   9.300        103.33	    11.136
   9.320        120.00	    12.000
   9.340        125.83	    12.288
   9.360         95.83	    10.724
   9.380        115.83	    11.790
   9.400        114.17	    11.705
   9.420        112.50	    11.619
   9.440        117.50	    11.874
   9.460        103.33	    11.136
   9.480        124.17	    12.207
   9.500         90.00	    10.392
   9.520        105.83	    11.269
   9.540        105.83	    11.269
   9.560        111.67	    11.576
   9.580        100.83	    11.000
   9.600        104.17	    11.180
   9.620         97.50	    10.817
   9.640         96.67	    10.770
   9.660        110.83	    11.533
   9.680         93.33	    10.583
   9.700        101.67	    11.045
   9.720         89.17	    10.344
   9.740        104.17	    11.180
   9.760         84.17	    10.050
   9.780        101.67	    11.045
   9.800        106.67	    11.314
   9.820        111.67	    11.576
   9.840         90.00	    10.392
   9.860         99.17	    10.909
   9.880        112.50	    11.619
   9.900        104.17	    11.180
   9.920         96.67	    10.770
   9.940         99.17	    10.909
   9.960         80.83	     9.849
   9.980         97.50	    10.817
  10.000         87.50	    10.247
  10.020        104.17	    11.180
  10.040        101.67	    11.045
  10.060         82.50	     9.950
  10.080         95.83	    10.724
  10.100         96.67	    10.770
  10.120         95.83	    10.724
  10.140         75.00	     9.487
  10.160         85.83	    10.149
  10.180         94.17	    10.630
  10.200        105.00	    11.225
  10.220         99.17	    10.909
  10.240         94.17	    10.630
  10.260         85.83	    10.149
  10.280        105.00	    11.225
  10.300         89.17	    10.344
  10.320         98.33	    10.863
  10.340         93.33	    10.583
  10.360         90.00	    10.392
  10.380        116.67	    11.832
  10.400        100.00	    10.954
  10.420        100.00	    10.954
  10.440        102.50	    11.091
  10.460        114.17	    11.705
  10.480        112.50	    11.619
  10.500        106.67	    11.314
  10.520        109.17	    11.446
  10.540         98.33	    10.863
  10.560        103.33	    11.136
  10.580         89.17	    10.344
  10.600         89.17	    10.344
  10.620         97.50	    10.817
  10.640         85.00	    10.100
  10.660         85.83	    10.149
  10.680         87.50	    10.247
  10.700         80.83	     9.849
  10.720         86.67	    10.198
  10.740         95.00	    10.677
  10.760         90.83	    10.440
  10.780         76.67	     9.592
  10.800        108.33	    11.402
  10.820        146.67	    13.266
  10.840        143.33	    13.115
  10.860        107.50	    11.358
  10.880        109.17	    11.446
  10.900         89.17	    10.344
  10.920         88.33	    10.296
  10.940         89.17	    10.344
  10.960         82.50	     9.950
  10.980         94.17	    10.630
  11.000         92.50	    10.536
  11.020         87.50	    10.247
  11.040         78.33	     9.695
  11.060         89.17	    10.344
  11.080         81.67	     9.899
  11.100         79.17	     9.747
  11.120         80.00	     9.798
  11.140         80.83	     9.849
  11.160         83.33	    10.000
  11.180         77.50	     9.644
  11.200         78.33	     9.695
  11.220         74.17	     9.434
  11.240        101.67	    11.045
  11.260         83.33	    10.000
  11.280         91.67	    10.488
  11.300         80.83	     9.849
  11.320         91.67	    10.488
  11.340         74.17	     9.434
  11.360        100.00	    10.954
  11.380         88.33	    10.296
  11.400         89.17	    10.344
  11.420         90.83	    10.440
  11.440         79.17	     9.747
  11.460         82.50	     9.950
  11.480         87.50	    10.247
  11.500         81.67	     9.899
  11.520         80.83	     9.849
  11.540         77.50	     9.644
  11.560         69.17	     9.110
  11.580         78.33	     9.695
  11.600         85.00	    10.100
  11.620         82.50	     9.950
  11.640         68.33	     9.055
  11.660         72.50	     9.327
  11.680         90.00	    10.392
  11.700         89.17	    10.344
  11.720         87.50	    10.247
  11.740         91.67	    10.488
  11.760         83.33	    10.000
  11.780         95.83	    10.724
  11.800         84.17	    10.050
  11.820         70.00	     9.165
  11.840         94.17	    10.630
  11.860         84.17	    10.050
  11.880         88.33	    10.296
  11.900         88.33	    10.296
  11.920         95.00	    10.677
  11.940         90.83	    10.440
  11.960         76.67	     9.592
  11.980         91.67	    10.488
  12.000         85.00	    10.100
  12.020         90.83	    10.440
  12.040        104.17	    11.180
  12.060        100.83	    11.000
  12.080        116.67	    11.832
  12.100        155.83	    13.675
  12.120        180.83	    14.731
  12.140        231.67	    16.673
  12.160        245.83	    17.176
  12.180        198.33	    15.427
  12.200        153.33	    13.565
  12.220        124.17	    12.207
  12.240        103.33	    11.136
  12.260        102.50	    11.091
  12.280        119.17	    11.958
  12.300        118.33	    11.916
  12.320         97.50	    10.817
  12.340        102.50	    11.091
  12.360        120.00	    12.000
  12.380        126.67	    12.329
  12.400        134.17	    12.689
  12.420        129.17	    12.450
  12.440        169.17	    14.248
  12.460        155.00	    13.638
  12.480        165.83	    14.107
  12.500        135.00	    12.728
  12.520        128.33	    12.410
  12.540        123.33	    12.166
  12.560         80.83	     9.849
  12.580         96.67	    10.770
  12.600         75.83	     9.539
  12.620         83.33	    10.000
  12.640         65.83	     8.888
  12.660        100.83	    11.000
  12.680         72.50	     9.327
  12.700         79.17	     9.747
  12.720         79.17	     9.747
  12.740         85.00	    10.100
  12.760         78.33	     9.695
  12.780         80.00	     9.798
  12.800         76.67	     9.592
  12.820         61.67	     8.602
  12.840         89.17	    10.344
  12.860         75.00	     9.487
  12.880         61.67	     8.602
  12.900         66.67	     8.944
  12.920         64.17	     8.775
  12.940         50.00	     7.746
  12.960         57.50	     8.307
  12.980         70.00	     9.165
  13.000         66.67	     8.944
  13.020         65.00	     8.832
  13.040         67.50	     9.000
  13.060         75.83	     9.539
  13.080         65.00	     8.832
  13.100         77.50	     9.644
  13.120         83.33	    10.000
  13.140         69.17	     9.110
  13.160         70.00	     9.165
  13.180         59.17	     8.426
  13.200         58.33	     8.367
  13.220         79.17	     9.747
  13.240         65.83	     8.888
  13.260         86.67	    10.198
  13.280         74.17	     9.434
  13.300         61.67	     8.602
  13.320         80.83	     9.849
  13.340         65.83	     8.888
  13.360         71.67	     9.274
  13.380         74.17	     9.434
  13.400         56.67	     8.246
  13.420         65.83	     8.888
  13.440         68.33	     9.055
  13.460         57.50	     8.307
  13.480         67.50	     9.000
  13.500         65.83	     8.888
  13.520         85.00	    10.100
  13.540         84.17	    10.050
  13.560         73.33	     9.381
  13.580         70.00	     9.165
  13.600         67.50	     9.000
  13.620         86.67	    10.198
  13.640         59.17	     8.426
  13.660         70.83	     9.220
  13.680         78.33	     9.695
  13.700         71.67	     9.274
  13.720         84.17	    10.050
  13.740         63.33	     8.718
  13.760         75.00	     9.487
  13.780         69.17	     9.110
  13.800         85.83	    10.149
  13.820         94.17	    10.630
  13.840         94.17	    10.630
  13.860         99.17	    10.909
  13.880         73.33	     9.381
  13.900         82.50	     9.950
  13.920         80.83	     9.849
  13.940         65.83	     8.888
  13.960         74.17	     9.434
  13.980         69.17	     9.110
  14.000         64.17	     8.775
  14.020         63.33	     8.718
  14.040         67.50	     9.000
  14.060         72.50	     9.327
  14.080         66.67	     8.944
  14.100         59.17	     8.426
  14.120         70.83	     9.220
  14.140         60.83	     8.544
  14.160         70.00	     9.165
  14.180         55.83	     8.185
  14.200         77.50	     9.644
  14.220         57.50	     8.307
  14.240         67.50	     9.000
  14.260         60.00	     8.485
  14.280         75.00	     9.487
  14.300         65.00	     8.832
  14.320         51.67	     7.874
  14.340         60.00	     8.485
  14.360         60.83	     8.544
  14.380         67.50	     9.000
  14.400         55.00	     8.124
