
Filename:
	C:\Program Files\Thermo Electron\WinXRD\Datafiles\F_HERMAN\GEO\G38_RT.raw

File Created:
	February 19, 2020 - 06:44 PM

Specimen Id:
	G38_RT

Specimen Name:
	

Specimen Description:
	

Comment:
Scan Type: 2Theta Scan
Start Angle: 3 deg.
Stop Angle: 65 deg.
Num Points: 3101
Step Size: 0.02 deg.
Scan Rate: 1.000000
Scan Mode: Continuous
Wavelength: 1.540562
\Kalpha1: 1.540562	\Kalpha2: 1.544390	\Kbeta: 1.392218

Optics:
		Detector:
			 Type: Fixed Slits
		Tube: 
			 Type: Fixed Slits


Datas:
 Pos [deg]       Rate [CPS]      ESD [-]

Range 1 ---> Iteration 1
   3.000        435.00	    22.847
   3.020        413.33	    22.271
   3.040        415.00	    22.316
   3.060        424.17	    22.561
   3.080        433.33	    22.804
   3.100        417.50	    22.383
   3.120        412.50	    22.249
   3.140        414.17	    22.293
   3.160        403.33	    22.000
   3.180        409.17	    22.159
   3.200        407.50	    22.113
   3.220        410.00	    22.181
   3.240        376.67	    21.260
   3.260        420.00	    22.450
   3.280        381.67	    21.401
   3.300        370.83	    21.095
   3.320        395.00	    21.772
   3.340        374.17	    21.190
   3.360        360.00	    20.785
   3.380        367.50	    21.000
   3.400        364.17	    20.905
   3.420        391.67	    21.679
   3.440        364.17	    20.905
   3.460        376.67	    21.260
   3.480        376.67	    21.260
   3.500        365.83	    20.952
   3.520        352.50	    20.567
   3.540        357.50	    20.712
   3.560        366.67	    20.976
   3.580        351.67	    20.543
   3.600        379.17	    21.331
   3.620        353.33	    20.591
   3.640        337.50	    20.125
   3.660        321.67	    19.647
   3.680        320.83	    19.621
   3.700        304.17	    19.105
   3.720        353.33	    20.591
   3.740        314.17	    19.416
   3.760        352.50	    20.567
   3.780        325.00	    19.748
   3.800        339.17	    20.174
   3.820        313.33	    19.391
   3.840        323.33	    19.698
   3.860        307.50	    19.209
   3.880        312.50	    19.365
   3.900        335.83	    20.075
   3.920        293.33	    18.762
   3.940        286.67	    18.547
   3.960        295.00	    18.815
   3.980        331.67	    19.950
   4.000        330.00	    19.900
   4.020        291.67	    18.708
   4.040        278.33	    18.276
   4.060        329.17	    19.875
   4.080        303.33	    19.079
   4.100        328.33	    19.849
   4.120        281.67	    18.385
   4.140        273.33	    18.111
   4.160        304.17	    19.105
   4.180        261.67	    17.720
   4.200        280.83	    18.358
   4.220        313.33	    19.391
   4.240        283.33	    18.439
   4.260        315.83	    19.468
   4.280        308.33	    19.235
   4.300        260.83	    17.692
   4.320        277.50	    18.248
   4.340        247.50	    17.234
   4.360        279.17	    18.303
   4.380        290.00	    18.655
   4.400        241.67	    17.029
   4.420        282.50	    18.412
   4.440        247.50	    17.234
   4.460        255.83	    17.521
   4.480        274.17	    18.138
   4.500        295.00	    18.815
   4.520        256.67	    17.550
   4.540        270.00	    18.000
   4.560        262.50	    17.748
   4.580        256.67	    17.550
   4.600        280.83	    18.358
   4.620        233.33	    16.733
   4.640        270.00	    18.000
   4.660        238.33	    16.912
   4.680        265.00	    17.833
   4.700        246.67	    17.205
   4.720        238.33	    16.912
   4.740        287.50	    18.574
   4.760        225.83	    16.462
   4.780        246.67	    17.205
   4.800        218.33	    16.186
   4.820        208.33	    15.811
   4.840        253.33	    17.436
   4.860        260.83	    17.692
   4.880        265.00	    17.833
   4.900        256.67	    17.550
   4.920        219.17	    16.217
   4.940        220.83	    16.279
   4.960        227.50	    16.523
   4.980        228.33	    16.553
   5.000        235.83	    16.823
   5.020        212.50	    15.969
   5.040        228.33	    16.553
   5.060        229.17	    16.583
   5.080        200.83	    15.524
   5.100        236.67	    16.852
   5.120        240.00	    16.971
   5.140        245.83	    17.176
   5.160        217.50	    16.155
   5.180        223.33	    16.371
   5.200        198.33	    15.427
   5.220        230.00	    16.613
   5.240        228.33	    16.553
   5.260        200.83	    15.524
   5.280        214.17	    16.031
   5.300        226.67	    16.492
   5.320        218.33	    16.186
   5.340        226.67	    16.492
   5.360        226.67	    16.492
   5.380        201.67	    15.556
   5.400        213.33	    16.000
   5.420        224.17	    16.401
   5.440        182.50	    14.799
   5.460        183.33	    14.832
   5.480        202.50	    15.588
   5.500        246.67	    17.205
   5.520        219.17	    16.217
   5.540        185.00	    14.900
   5.560        244.17	    17.117
   5.580        209.17	    15.843
   5.600        200.83	    15.524
   5.620        217.50	    16.155
   5.640        215.00	    16.062
   5.660        190.83	    15.133
   5.680        216.67	    16.125
   5.700        213.33	    16.000
   5.720        207.50	    15.780
   5.740        214.17	    16.031
   5.760        181.67	    14.765
   5.780        212.50	    15.969
   5.800        230.00	    16.613
   5.820        193.33	    15.232
   5.840        197.50	    15.395
   5.860        224.17	    16.401
   5.880        190.00	    15.100
   5.900        205.83	    15.716
   5.920        228.33	    16.553
   5.940        230.83	    16.643
   5.960        236.67	    16.852
   5.980        235.83	    16.823
   6.000        248.33	    17.263
   6.020        284.17	    18.466
   6.040        234.17	    16.763
   6.060        248.33	    17.263
   6.080        248.33	    17.263
   6.100        257.50	    17.578
   6.120        275.00	    18.166
   6.140        249.17	    17.292
   6.160        265.83	    17.861
   6.180        292.50	    18.735
   6.200        305.00	    19.131
   6.220        283.33	    18.439
   6.240        314.17	    19.416
   6.260        290.83	    18.682
   6.280        255.00	    17.493
   6.300        221.67	    16.310
   6.320        214.17	    16.031
   6.340        209.17	    15.843
   6.360        212.50	    15.969
   6.380        190.00	    15.100
   6.400        192.50	    15.199
   6.420        190.83	    15.133
   6.440        215.00	    16.062
   6.460        214.17	    16.031
   6.480        170.00	    14.283
   6.500        180.00	    14.697
   6.520        177.50	    14.595
   6.540        210.00	    15.875
   6.560        195.00	    15.297
   6.580        207.50	    15.780
   6.600        190.83	    15.133
   6.620        182.50	    14.799
   6.640        179.17	    14.663
   6.660        181.67	    14.765
   6.680        195.00	    15.297
   6.700        189.17	    15.067
   6.720        187.50	    15.000
   6.740        175.00	    14.491
   6.760        180.00	    14.697
   6.780        159.17	    13.820
   6.800        172.50	    14.387
   6.820        187.50	    15.000
   6.840        165.83	    14.107
   6.860        199.17	    15.460
   6.880        175.83	    14.526
   6.900        171.67	    14.353
   6.920        156.67	    13.711
   6.940        179.17	    14.663
   6.960        175.83	    14.526
   6.980        170.00	    14.283
   7.000        160.00	    13.856
   7.020        169.17	    14.248
   7.040        168.33	    14.213
   7.060        165.83	    14.107
   7.080        160.83	    13.892
   7.100        168.33	    14.213
   7.120        172.50	    14.387
   7.140        158.33	    13.784
   7.160        186.67	    14.967
   7.180        146.67	    13.266
   7.200        165.00	    14.071
   7.220        167.50	    14.177
   7.240        162.50	    13.964
   7.260        150.83	    13.454
   7.280        170.00	    14.283
   7.300        146.67	    13.266
   7.320        185.00	    14.900
   7.340        139.17	    12.923
   7.360        153.33	    13.565
   7.380        162.50	    13.964
   7.400        151.67	    13.491
   7.420        168.33	    14.213
   7.440        139.17	    12.923
   7.460        152.50	    13.528
   7.480        158.33	    13.784
   7.500        150.00	    13.416
   7.520        148.33	    13.342
   7.540        144.17	    13.153
   7.560        140.00	    12.961
   7.580        143.33	    13.115
   7.600        169.17	    14.248
   7.620        170.00	    14.283
   7.640        161.67	    13.928
   7.660        153.33	    13.565
   7.680        140.00	    12.961
   7.700        175.00	    14.491
   7.720        151.67	    13.491
   7.740        145.00	    13.191
   7.760        138.33	    12.884
   7.780        163.33	    14.000
   7.800        160.00	    13.856
   7.820        139.17	    12.923
   7.840        144.17	    13.153
   7.860        160.00	    13.856
   7.880        142.50	    13.077
   7.900        147.50	    13.304
   7.920        152.50	    13.528
   7.940        143.33	    13.115
   7.960        129.17	    12.450
   7.980        165.00	    14.071
   8.000        169.17	    14.248
   8.020        170.83	    14.318
   8.040        149.17	    13.379
   8.060        161.67	    13.928
   8.080        140.83	    13.000
   8.100        132.50	    12.610
   8.120        140.83	    13.000
   8.140        162.50	    13.964
   8.160        140.83	    13.000
   8.180        133.33	    12.649
   8.200        148.33	    13.342
   8.220        153.33	    13.565
   8.240        149.17	    13.379
   8.260        165.83	    14.107
   8.280        162.50	    13.964
   8.300        151.67	    13.491
   8.320        170.00	    14.283
   8.340        152.50	    13.528
   8.360        150.00	    13.416
   8.380        139.17	    12.923
   8.400        170.83	    14.318
   8.420        162.50	    13.964
   8.440        153.33	    13.565
   8.460        150.83	    13.454
   8.480        172.50	    14.387
   8.500        150.83	    13.454
   8.520        170.00	    14.283
   8.540        182.50	    14.799
   8.560        176.67	    14.560
   8.580        195.00	    15.297
   8.600        187.50	    15.000
   8.620        191.67	    15.166
   8.640        220.00	    16.248
   8.660        221.67	    16.310
   8.680        242.50	    17.059
   8.700        241.67	    17.029
   8.720        314.17	    19.416
   8.740        335.83	    20.075
   8.760        367.50	    21.000
   8.780        387.50	    21.564
   8.800        478.33	    23.958
   8.820        512.50	    24.799
   8.840        635.83	    27.622
   8.860        884.17	    32.573
   8.880        988.33	    34.438
   8.900        921.67	    33.257
   8.920        708.33	    29.155
   8.940        423.33	    22.539
   8.960        264.17	    17.804
   8.980        205.00	    15.684
   9.000        186.67	    14.967
   9.020        196.67	    15.362
   9.040        156.67	    13.711
   9.060        167.50	    14.177
   9.080        174.17	    14.457
   9.100        142.50	    13.077
   9.120        162.50	    13.964
   9.140        172.50	    14.387
   9.160        170.00	    14.283
   9.180        159.17	    13.820
   9.200        152.50	    13.528
   9.220        176.67	    14.560
   9.240        144.17	    13.153
   9.260        145.83	    13.229
   9.280        131.67	    12.570
   9.300        126.67	    12.329
   9.320        107.50	    11.358
   9.340        133.33	    12.649
   9.360        135.83	    12.767
   9.380        141.67	    13.038
   9.400        140.83	    13.000
   9.420        154.17	    13.601
   9.440        136.67	    12.806
   9.460        136.67	    12.806
   9.480        123.33	    12.166
   9.500        158.33	    13.784
   9.520        127.50	    12.369
   9.540        124.17	    12.207
   9.560        117.50	    11.874
   9.580        116.67	    11.832
   9.600        119.17	    11.958
   9.620        109.17	    11.446
   9.640        109.17	    11.446
   9.660        128.33	    12.410
   9.680        111.67	    11.576
   9.700        119.17	    11.958
   9.720        121.67	    12.083
   9.740        120.83	    12.042
   9.760        115.00	    11.747
   9.780        117.50	    11.874
   9.800        135.00	    12.728
   9.820        123.33	    12.166
   9.840        125.00	    12.247
   9.860        115.83	    11.790
   9.880        119.17	    11.958
   9.900        120.00	    12.000
   9.920        109.17	    11.446
   9.940        106.67	    11.314
   9.960        117.50	    11.874
   9.980        123.33	    12.166
  10.000        112.50	    11.619
  10.020        100.00	    10.954
  10.040        110.00	    11.489
  10.060         92.50	    10.536
  10.080        103.33	    11.136
  10.100        106.67	    11.314
  10.120        110.00	    11.489
  10.140         92.50	    10.536
  10.160        127.50	    12.369
  10.180        103.33	    11.136
  10.200        134.17	    12.689
  10.220        103.33	    11.136
  10.240        106.67	    11.314
  10.260         98.33	    10.863
  10.280        110.00	    11.489
  10.300        105.83	    11.269
  10.320        120.83	    12.042
  10.340        130.00	    12.490
  10.360        120.83	    12.042
  10.380        127.50	    12.369
  10.400        107.50	    11.358
  10.420        115.00	    11.747
  10.440        132.50	    12.610
  10.460        127.50	    12.369
  10.480        150.00	    13.416
  10.500        170.83	    14.318
  10.520        195.83	    15.330
  10.540        170.83	    14.318
  10.560        159.17	    13.820
  10.580        148.33	    13.342
  10.600        113.33	    11.662
  10.620        141.67	    13.038
  10.640        114.17	    11.705
  10.660        122.50	    12.124
  10.680        120.83	    12.042
  10.700        122.50	    12.124
  10.720        105.00	    11.225
  10.740        105.00	    11.225
  10.760         95.83	    10.724
  10.780        110.00	    11.489
  10.800        109.17	    11.446
  10.820        120.00	    12.000
  10.840        108.33	    11.402
  10.860         94.17	    10.630
  10.880        106.67	    11.314
  10.900         93.33	    10.583
  10.920         95.83	    10.724
  10.940        115.00	    11.747
  10.960        117.50	    11.874
  10.980        106.67	    11.314
  11.000        115.83	    11.790
  11.020        115.00	    11.747
  11.040         92.50	    10.536
  11.060        120.00	    12.000
  11.080        109.17	    11.446
  11.100         99.17	    10.909
  11.120         99.17	    10.909
  11.140        109.17	    11.446
  11.160        119.17	    11.958
  11.180        111.67	    11.576
  11.200        107.50	    11.358
  11.220        104.17	    11.180
  11.240         92.50	    10.536
  11.260        102.50	    11.091
  11.280        116.67	    11.832
  11.300        106.67	    11.314
  11.320         95.00	    10.677
  11.340        102.50	    11.091
  11.360         96.67	    10.770
  11.380        101.67	    11.045
  11.400         89.17	    10.344
  11.420        105.83	    11.269
  11.440        126.67	    12.329
  11.460        119.17	    11.958
  11.480         96.67	    10.770
  11.500        110.83	    11.533
  11.520        128.33	    12.410
  11.540        105.00	    11.225
  11.560         99.17	    10.909
  11.580        107.50	    11.358
  11.600        117.50	    11.874
  11.620        110.83	    11.533
  11.640         98.33	    10.863
  11.660        104.17	    11.180
  11.680        110.83	    11.533
  11.700        106.67	    11.314
  11.720         99.17	    10.909
  11.740        110.00	    11.489
  11.760        101.67	    11.045
  11.780         90.00	    10.392
  11.800        103.33	    11.136
  11.820        102.50	    11.091
  11.840        110.83	    11.533
  11.860         96.67	    10.770
  11.880        110.83	    11.533
  11.900        109.17	    11.446
  11.920        125.00	    12.247
  11.940        110.83	    11.533
  11.960        121.67	    12.083
  11.980        130.83	    12.530
  12.000        124.17	    12.207
  12.020        109.17	    11.446
  12.040        123.33	    12.166
  12.060        126.67	    12.329
  12.080        150.00	    13.416
  12.100        152.50	    13.528
  12.120        199.17	    15.460
  12.140        284.17	    18.466
  12.160        400.83	    21.932
  12.180        563.33	    26.000
  12.200        536.67	    25.377
  12.220        465.83	    23.643
  12.240        325.83	    19.774
  12.260        228.33	    16.553
  12.280        175.83	    14.526
  12.300        186.67	    14.967
  12.320        207.50	    15.780
  12.340        202.50	    15.588
  12.360        215.00	    16.062
  12.380        210.00	    15.875
  12.400        221.67	    16.310
  12.420        244.17	    17.117
  12.440        215.83	    16.093
  12.460        290.83	    18.682
  12.480        347.50	    20.421
  12.500        380.00	    21.354
  12.520        367.50	    21.000
  12.540        325.83	    19.774
  12.560        237.50	    16.882
  12.580        165.00	    14.071
  12.600        125.83	    12.288
  12.620        103.33	    11.136
  12.640        130.83	    12.530
  12.660        117.50	    11.874
  12.680        118.33	    11.916
  12.700        123.33	    12.166
  12.720         89.17	    10.344
  12.740         97.50	    10.817
  12.760         84.17	    10.050
  12.780        101.67	    11.045
  12.800        100.00	    10.954
  12.820         78.33	     9.695
  12.840         88.33	    10.296
  12.860         72.50	     9.327
  12.880        105.83	    11.269
  12.900         92.50	    10.536
  12.920         92.50	    10.536
  12.940         88.33	    10.296
  12.960         98.33	    10.863
  12.980         85.83	    10.149
  13.000        102.50	    11.091
  13.020         80.83	     9.849
  13.040         90.83	    10.440
  13.060         74.17	     9.434
  13.080         97.50	    10.817
  13.100        103.33	    11.136
  13.120         81.67	     9.899
  13.140         90.00	    10.392
  13.160         85.00	    10.100
  13.180         85.00	    10.100
  13.200         82.50	     9.950
  13.220         98.33	    10.863
  13.240         78.33	     9.695
  13.260        105.00	    11.225
  13.280         99.17	    10.909
  13.300         74.17	     9.434
  13.320         95.83	    10.724
  13.340         83.33	    10.000
  13.360         90.00	    10.392
  13.380         95.00	    10.677
  13.400         79.17	     9.747
  13.420         90.00	    10.392
  13.440         95.00	    10.677
  13.460         85.83	    10.149
  13.480         74.17	     9.434
  13.500         92.50	    10.536
  13.520         95.83	    10.724
  13.540         95.83	    10.724
  13.560         90.00	    10.392
  13.580         94.17	    10.630
  13.600         96.67	    10.770
  13.620         96.67	    10.770
  13.640         70.00	     9.165
  13.660         84.17	    10.050
  13.680         94.17	    10.630
  13.700         90.83	    10.440
  13.720         96.67	    10.770
  13.740        100.00	    10.954
  13.760        102.50	    11.091
  13.780         85.83	    10.149
  13.800        119.17	    11.958
  13.820        131.67	    12.570
  13.840        155.00	    13.638
  13.860        152.50	    13.528
  13.880        134.17	    12.689
  13.900        127.50	    12.369
  13.920        101.67	    11.045
  13.940         80.00	     9.798
  13.960         94.17	    10.630
  13.980         85.00	    10.100
  14.000        104.17	    11.180
  14.020         91.67	    10.488
  14.040         80.83	     9.849
  14.060         80.00	     9.798
  14.080         76.67	     9.592
  14.100         86.67	    10.198
  14.120         99.17	    10.909
  14.140         72.50	     9.327
  14.160         79.17	     9.747
  14.180         70.83	     9.220
  14.200         69.17	     9.110
  14.220         81.67	     9.899
  14.240         83.33	    10.000
  14.260         71.67	     9.274
  14.280         64.17	     8.775
  14.300         60.83	     8.544
  14.320         90.00	    10.392
  14.340         72.50	     9.327
  14.360         90.83	    10.440
  14.380         81.67	     9.899
  14.400         83.33	    10.000
