
Filename:
	C:\Program Files\Thermo Electron\WinXRD\Datafiles\F_HERMAN\GEO\G41_RT.raw

File Created:
	February 18, 2020 - 09:18 PM

Specimen Id:
	G41_RT

Specimen Name:
	

Specimen Description:
	

Comment:
Scan Type: 2Theta Scan
Start Angle: 3 deg.
Stop Angle: 65 deg.
Num Points: 3101
Step Size: 0.02 deg.
Scan Rate: 1.000000
Scan Mode: Continuous
Wavelength: 1.540562
\Kalpha1: 1.540562	\Kalpha2: 1.544390	\Kbeta: 1.392218

Optics:
		Detector:
			 Type: Fixed Slits
		Tube: 
			 Type: Fixed Slits


Datas:
 Pos [deg]       Rate [CPS]      ESD [-]

Range 1 ---> Iteration 1
   3.000        429.17	    22.694
   3.020        457.50	    23.431
   3.040        421.67	    22.494
   3.060        455.83	    23.388
   3.080        418.33	    22.405
   3.100        410.00	    22.181
   3.120        435.00	    22.847
   3.140        410.83	    22.204
   3.160        406.67	    22.091
   3.180        442.50	    23.043
   3.200        404.17	    22.023
   3.220        394.17	    21.749
   3.240        416.67	    22.361
   3.260        387.50	    21.564
   3.280        389.17	    21.610
   3.300        385.00	    21.494
   3.320        405.83	    22.068
   3.340        388.33	    21.587
   3.360        398.33	    21.863
   3.380        380.83	    21.378
   3.400        387.50	    21.564
   3.420        378.33	    21.307
   3.440        348.33	    20.445
   3.460        350.83	    20.518
   3.480        372.50	    21.142
   3.500        371.67	    21.119
   3.520        372.50	    21.142
   3.540        381.67	    21.401
   3.560        381.67	    21.401
   3.580        378.33	    21.307
   3.600        365.00	    20.928
   3.620        355.00	    20.640
   3.640        357.50	    20.712
   3.660        330.00	    19.900
   3.680        354.17	    20.616
   3.700        367.50	    21.000
   3.720        365.83	    20.952
   3.740        331.67	    19.950
   3.760        349.17	    20.469
   3.780        340.00	    20.199
   3.800        392.50	    21.703
   3.820        363.33	    20.881
   3.840        370.83	    21.095
   3.860        347.50	    20.421
   3.880        357.50	    20.712
   3.900        363.33	    20.881
   3.920        335.83	    20.075
   3.940        294.17	    18.788
   3.960        320.83	    19.621
   3.980        333.33	    20.000
   4.000        311.67	    19.339
   4.020        326.67	    19.799
   4.040        330.00	    19.900
   4.060        319.17	    19.570
   4.080        310.00	    19.287
   4.100        347.50	    20.421
   4.120        311.67	    19.339
   4.140        301.67	    19.026
   4.160        334.17	    20.025
   4.180        274.17	    18.138
   4.200        299.17	    18.947
   4.220        284.17	    18.466
   4.240        304.17	    19.105
   4.260        305.83	    19.157
   4.280        295.00	    18.815
   4.300        300.83	    19.000
   4.320        265.00	    17.833
   4.340        263.33	    17.776
   4.360        316.67	    19.494
   4.380        308.33	    19.235
   4.400        266.67	    17.889
   4.420        281.67	    18.385
   4.440        280.00	    18.330
   4.460        275.83	    18.193
   4.480        283.33	    18.439
   4.500        273.33	    18.111
   4.520        261.67	    17.720
   4.540        258.33	    17.607
   4.560        255.83	    17.521
   4.580        261.67	    17.720
   4.600        286.67	    18.547
   4.620        259.17	    17.635
   4.640        290.00	    18.655
   4.660        251.67	    17.378
   4.680        264.17	    17.804
   4.700        260.00	    17.664
   4.720        262.50	    17.748
   4.740        259.17	    17.635
   4.760        248.33	    17.263
   4.780        249.17	    17.292
   4.800        263.33	    17.776
   4.820        249.17	    17.292
   4.840        222.50	    16.340
   4.860        233.33	    16.733
   4.880        251.67	    17.378
   4.900        210.83	    15.906
   4.920        241.67	    17.029
   4.940        236.67	    16.852
   4.960        234.17	    16.763
   4.980        255.83	    17.521
   5.000        258.33	    17.607
   5.020        231.67	    16.673
   5.040        241.67	    17.029
   5.060        240.00	    16.971
   5.080        229.17	    16.583
   5.100        236.67	    16.852
   5.120        235.83	    16.823
   5.140        230.83	    16.643
   5.160        223.33	    16.371
   5.180        227.50	    16.523
   5.200        232.50	    16.703
   5.220        220.00	    16.248
   5.240        256.67	    17.550
   5.260        215.00	    16.062
   5.280        215.83	    16.093
   5.300        235.83	    16.823
   5.320        227.50	    16.523
   5.340        201.67	    15.556
   5.360        207.50	    15.780
   5.380        190.83	    15.133
   5.400        234.17	    16.763
   5.420        217.50	    16.155
   5.440        245.00	    17.146
   5.460        210.83	    15.906
   5.480        200.83	    15.524
   5.500        198.33	    15.427
   5.520        233.33	    16.733
   5.540        209.17	    15.843
   5.560        215.00	    16.062
   5.580        218.33	    16.186
   5.600        215.83	    16.093
   5.620        194.17	    15.264
   5.640        208.33	    15.811
   5.660        218.33	    16.186
   5.680        189.17	    15.067
   5.700        210.83	    15.906
   5.720        181.67	    14.765
   5.740        205.00	    15.684
   5.760        220.00	    16.248
   5.780        195.00	    15.297
   5.800        208.33	    15.811
   5.820        200.83	    15.524
   5.840        204.17	    15.652
   5.860        202.50	    15.588
   5.880        201.67	    15.556
   5.900        196.67	    15.362
   5.920        185.83	    14.933
   5.940        200.83	    15.524
   5.960        195.00	    15.297
   5.980        219.17	    16.217
   6.000        218.33	    16.186
   6.020        218.33	    16.186
   6.040        212.50	    15.969
   6.060        240.00	    16.971
   6.080        218.33	    16.186
   6.100        206.67	    15.748
   6.120        195.83	    15.330
   6.140        205.83	    15.716
   6.160        212.50	    15.969
   6.180        200.00	    15.492
   6.200        210.00	    15.875
   6.220        193.33	    15.232
   6.240        205.00	    15.684
   6.260        167.50	    14.177
   6.280        197.50	    15.395
   6.300        201.67	    15.556
   6.320        199.17	    15.460
   6.340        171.67	    14.353
   6.360        187.50	    15.000
   6.380        193.33	    15.232
   6.400        180.83	    14.731
   6.420        162.50	    13.964
   6.440        180.83	    14.731
   6.460        191.67	    15.166
   6.480        183.33	    14.832
   6.500        197.50	    15.395
   6.520        195.83	    15.330
   6.540        178.33	    14.629
   6.560        165.00	    14.071
   6.580        195.83	    15.330
   6.600        211.67	    15.937
   6.620        184.17	    14.866
   6.640        181.67	    14.765
   6.660        174.17	    14.457
   6.680        190.00	    15.100
   6.700        160.83	    13.892
   6.720        181.67	    14.765
   6.740        170.00	    14.283
   6.760        162.50	    13.964
   6.780        182.50	    14.799
   6.800        166.67	    14.142
   6.820        166.67	    14.142
   6.840        147.50	    13.304
   6.860        160.00	    13.856
   6.880        167.50	    14.177
   6.900        181.67	    14.765
   6.920        181.67	    14.765
   6.940        155.83	    13.675
   6.960        168.33	    14.213
   6.980        158.33	    13.784
   7.000        168.33	    14.213
   7.020        152.50	    13.528
   7.040        147.50	    13.304
   7.060        174.17	    14.457
   7.080        168.33	    14.213
   7.100        183.33	    14.832
   7.120        168.33	    14.213
   7.140        150.00	    13.416
   7.160        159.17	    13.820
   7.180        167.50	    14.177
   7.200        132.50	    12.610
   7.220        155.00	    13.638
   7.240        155.00	    13.638
   7.260        154.17	    13.601
   7.280        155.00	    13.638
   7.300        143.33	    13.115
   7.320        154.17	    13.601
   7.340        163.33	    14.000
   7.360        149.17	    13.379
   7.380        135.83	    12.767
   7.400        162.50	    13.964
   7.420        170.00	    14.283
   7.440        150.00	    13.416
   7.460        150.83	    13.454
   7.480        161.67	    13.928
   7.500        163.33	    14.000
   7.520        155.83	    13.675
   7.540        160.00	    13.856
   7.560        161.67	    13.928
   7.580        177.50	    14.595
   7.600        158.33	    13.784
   7.620        143.33	    13.115
   7.640        150.83	    13.454
   7.660        151.67	    13.491
   7.680        166.67	    14.142
   7.700        135.83	    12.767
   7.720        137.50	    12.845
   7.740        146.67	    13.266
   7.760        136.67	    12.806
   7.780        161.67	    13.928
   7.800        145.00	    13.191
   7.820        152.50	    13.528
   7.840        151.67	    13.491
   7.860        131.67	    12.570
   7.880        150.00	    13.416
   7.900        125.83	    12.288
   7.920        155.83	    13.675
   7.940        141.67	    13.038
   7.960        152.50	    13.528
   7.980        129.17	    12.450
   8.000        152.50	    13.528
   8.020        121.67	    12.083
   8.040        137.50	    12.845
   8.060        141.67	    13.038
   8.080        138.33	    12.884
   8.100        140.83	    13.000
   8.120        116.67	    11.832
   8.140        144.17	    13.153
   8.160        148.33	    13.342
   8.180        140.83	    13.000
   8.200        130.00	    12.490
   8.220        130.00	    12.490
   8.240        140.00	    12.961
   8.260        122.50	    12.124
   8.280        128.33	    12.410
   8.300        133.33	    12.649
   8.320        137.50	    12.845
   8.340        136.67	    12.806
   8.360        138.33	    12.884
   8.380        128.33	    12.410
   8.400        135.00	    12.728
   8.420        140.83	    13.000
   8.440        122.50	    12.124
   8.460        163.33	    14.000
   8.480        126.67	    12.329
   8.500        149.17	    13.379
   8.520        140.00	    12.961
   8.540        155.83	    13.675
   8.560        144.17	    13.153
   8.580        142.50	    13.077
   8.600        147.50	    13.304
   8.620        140.00	    12.961
   8.640        152.50	    13.528
   8.660        175.00	    14.491
   8.680        159.17	    13.820
   8.700        159.17	    13.820
   8.720        170.00	    14.283
   8.740        215.83	    16.093
   8.760        235.00	    16.793
   8.780        293.33	    18.762
   8.800        281.67	    18.385
   8.820        234.17	    16.763
   8.840        151.67	    13.491
   8.860        130.83	    12.530
   8.880        122.50	    12.124
   8.900        124.17	    12.207
   8.920        125.83	    12.288
   8.940        151.67	    13.491
   8.960        139.17	    12.923
   8.980        127.50	    12.369
   9.000        114.17	    11.705
   9.020        124.17	    12.207
   9.040        124.17	    12.207
   9.060        132.50	    12.610
   9.080        114.17	    11.705
   9.100        110.00	    11.489
   9.120        115.00	    11.747
   9.140        130.00	    12.490
   9.160        115.00	    11.747
   9.180        125.00	    12.247
   9.200        133.33	    12.649
   9.220        100.83	    11.000
   9.240        121.67	    12.083
   9.260        110.83	    11.533
   9.280        122.50	    12.124
   9.300        138.33	    12.884
   9.320        140.83	    13.000
   9.340        150.00	    13.416
   9.360        128.33	    12.410
   9.380        130.00	    12.490
   9.400        113.33	    11.662
   9.420        119.17	    11.958
   9.440        118.33	    11.916
   9.460        122.50	    12.124
   9.480        135.00	    12.728
   9.500        121.67	    12.083
   9.520        124.17	    12.207
   9.540        110.83	    11.533
   9.560        125.83	    12.288
   9.580        103.33	    11.136
   9.600        105.00	    11.225
   9.620        117.50	    11.874
   9.640        110.00	    11.489
   9.660        106.67	    11.314
   9.680        119.17	    11.958
   9.700        115.83	    11.790
   9.720        125.83	    12.288
   9.740        110.83	    11.533
   9.760         96.67	    10.770
   9.780        108.33	    11.402
   9.800        113.33	    11.662
   9.820        119.17	    11.958
   9.840        108.33	    11.402
   9.860        104.17	    11.180
   9.880        115.83	    11.790
   9.900        117.50	    11.874
   9.920        106.67	    11.314
   9.940        124.17	    12.207
   9.960        108.33	    11.402
   9.980         88.33	    10.296
  10.000        100.83	    11.000
  10.020        126.67	    12.329
  10.040        112.50	    11.619
  10.060         96.67	    10.770
  10.080        105.83	    11.269
  10.100         99.17	    10.909
  10.120        105.00	    11.225
  10.140        100.83	    11.000
  10.160        118.33	    11.916
  10.180        106.67	    11.314
  10.200        109.17	    11.446
  10.220        102.50	    11.091
  10.240        115.00	    11.747
  10.260         92.50	    10.536
  10.280        103.33	    11.136
  10.300         89.17	    10.344
  10.320        115.83	    11.790
  10.340         96.67	    10.770
  10.360        113.33	    11.662
  10.380        115.83	    11.790
  10.400        111.67	    11.576
  10.420        118.33	    11.916
  10.440        110.83	    11.533
  10.460        116.67	    11.832
  10.480         98.33	    10.863
  10.500        112.50	    11.619
  10.520        106.67	    11.314
  10.540        101.67	    11.045
  10.560         93.33	    10.583
  10.580        112.50	    11.619
  10.600         97.50	    10.817
  10.620        101.67	    11.045
  10.640         98.33	    10.863
  10.660        105.83	    11.269
  10.680        105.83	    11.269
  10.700         98.33	    10.863
  10.720         91.67	    10.488
  10.740         85.00	    10.100
  10.760         94.17	    10.630
  10.780         87.50	    10.247
  10.800        106.67	    11.314
  10.820         98.33	    10.863
  10.840         84.17	    10.050
  10.860         98.33	    10.863
  10.880        103.33	    11.136
  10.900        104.17	    11.180
  10.920         95.00	    10.677
  10.940         88.33	    10.296
  10.960         85.83	    10.149
  10.980        119.17	    11.958
  11.000         95.83	    10.724
  11.020        100.83	    11.000
  11.040         86.67	    10.198
  11.060         95.00	    10.677
  11.080         97.50	    10.817
  11.100         88.33	    10.296
  11.120         95.83	    10.724
  11.140         86.67	    10.198
  11.160         88.33	    10.296
  11.180         71.67	     9.274
  11.200         91.67	    10.488
  11.220        114.17	    11.705
  11.240        105.00	    11.225
  11.260         88.33	    10.296
  11.280        102.50	    11.091
  11.300         82.50	     9.950
  11.320        110.00	    11.489
  11.340         97.50	    10.817
  11.360         77.50	     9.644
  11.380         85.83	    10.149
  11.400         80.00	     9.798
  11.420         92.50	    10.536
  11.440         86.67	    10.198
  11.460         82.50	     9.950
  11.480         81.67	     9.899
  11.500         96.67	    10.770
  11.520         83.33	    10.000
  11.540         85.83	    10.149
  11.560         90.83	    10.440
  11.580        106.67	    11.314
  11.600         92.50	    10.536
  11.620        100.00	    10.954
  11.640         82.50	     9.950
  11.660         92.50	    10.536
  11.680        100.83	    11.000
  11.700         85.00	    10.100
  11.720         73.33	     9.381
  11.740         89.17	    10.344
  11.760         85.83	    10.149
  11.780         98.33	    10.863
  11.800        104.17	    11.180
  11.820         79.17	     9.747
  11.840         80.83	     9.849
  11.860         81.67	     9.899
  11.880         75.83	     9.539
  11.900         79.17	     9.747
  11.920        100.00	    10.954
  11.940         92.50	    10.536
  11.960        112.50	    11.619
  11.980         97.50	    10.817
  12.000         86.67	    10.198
  12.020        125.00	    12.247
  12.040        134.17	    12.689
  12.060        131.67	    12.570
  12.080        160.00	    13.856
  12.100        195.83	    15.330
  12.120        157.50	    13.748
  12.140        135.00	    12.728
  12.160        139.17	    12.923
  12.180        101.67	    11.045
  12.200        110.00	    11.489
  12.220        105.00	    11.225
  12.240        120.83	    12.042
  12.260        112.50	    11.619
  12.280        102.50	    11.091
  12.300        111.67	    11.576
  12.320        101.67	    11.045
  12.340        124.17	    12.207
  12.360        115.00	    11.747
  12.380        120.00	    12.000
  12.400        120.00	    12.000
  12.420        127.50	    12.369
  12.440        115.83	    11.790
  12.460        119.17	    11.958
  12.480         96.67	    10.770
  12.500         94.17	    10.630
  12.520         84.17	    10.050
  12.540         79.17	     9.747
  12.560         75.83	     9.539
  12.580         77.50	     9.644
  12.600         90.00	    10.392
  12.620         90.83	    10.440
  12.640         79.17	     9.747
  12.660         80.83	     9.849
  12.680         83.33	    10.000
  12.700         87.50	    10.247
  12.720         86.67	    10.198
  12.740         81.67	     9.899
  12.760         75.83	     9.539
  12.780         65.00	     8.832
  12.800         70.00	     9.165
  12.820         78.33	     9.695
  12.840         68.33	     9.055
  12.860         89.17	    10.344
  12.880         87.50	    10.247
  12.900         87.50	    10.247
  12.920         81.67	     9.899
  12.940         83.33	    10.000
  12.960         73.33	     9.381
  12.980         93.33	    10.583
  13.000         74.17	     9.434
  13.020         60.83	     8.544
  13.040         80.83	     9.849
  13.060         67.50	     9.000
  13.080         83.33	    10.000
  13.100         75.00	     9.487
  13.120         67.50	     9.000
  13.140         66.67	     8.944
  13.160         75.83	     9.539
  13.180         83.33	    10.000
  13.200         68.33	     9.055
  13.220         71.67	     9.274
  13.240         72.50	     9.327
  13.260         69.17	     9.110
  13.280         80.00	     9.798
  13.300         74.17	     9.434
  13.320         85.83	    10.149
  13.340         87.50	    10.247
  13.360         80.00	     9.798
  13.380         80.83	     9.849
  13.400         68.33	     9.055
  13.420         81.67	     9.899
  13.440         67.50	     9.000
  13.460         90.83	    10.440
  13.480         70.00	     9.165
  13.500         85.83	    10.149
  13.520         72.50	     9.327
  13.540         90.00	    10.392
  13.560         90.00	    10.392
  13.580         82.50	     9.950
  13.600         79.17	     9.747
  13.620         85.83	    10.149
  13.640         75.83	     9.539
  13.660         75.83	     9.539
  13.680        104.17	    11.180
  13.700         78.33	     9.695
  13.720         80.00	     9.798
  13.740         85.83	    10.149
  13.760         82.50	     9.950
  13.780         75.83	     9.539
  13.800         64.17	     8.775
  13.820         83.33	    10.000
  13.840         87.50	    10.247
  13.860         80.00	     9.798
  13.880         78.33	     9.695
  13.900         68.33	     9.055
  13.920         75.00	     9.487
  13.940         74.17	     9.434
  13.960         67.50	     9.000
  13.980         70.83	     9.220
  14.000         82.50	     9.950
  14.020         67.50	     9.000
  14.040         85.00	    10.100
  14.060         89.17	    10.344
  14.080         60.00	     8.485
  14.100         64.17	     8.775
  14.120         62.50	     8.660
  14.140         75.83	     9.539
  14.160         75.00	     9.487
  14.180         68.33	     9.055
  14.200         66.67	     8.944
  14.220         80.83	     9.849
  14.240         65.83	     8.888
  14.260         75.83	     9.539
  14.280         67.50	     9.000
  14.300         67.50	     9.000
  14.320         57.50	     8.307
  14.340         65.00	     8.832
  14.360         75.00	     9.487
  14.380         58.33	     8.367
  14.400         61.67	     8.602
