
Filename:
	C:\Program Files\Thermo Electron\WinXRD\Datafiles\F_HERMAN\GEO\G42_RT.raw

File Created:
	February 18, 2020 - 10:20 PM

Specimen Id:
	G42_RT

Specimen Name:
	

Specimen Description:
	

Comment:
Scan Type: 2Theta Scan
Start Angle: 3 deg.
Stop Angle: 65 deg.
Num Points: 3101
Step Size: 0.02 deg.
Scan Rate: 1.000000
Scan Mode: Continuous
Wavelength: 1.540562
\Kalpha1: 1.540562	\Kalpha2: 1.544390	\Kbeta: 1.392218

Optics:
		Detector:
			 Type: Fixed Slits
		Tube: 
			 Type: Fixed Slits


Datas:
 Pos [deg]       Rate [CPS]      ESD [-]

Range 1 ---> Iteration 1
   3.000        439.17	    22.956
   3.020        424.17	    22.561
   3.040        442.50	    23.043
   3.060        467.50	    23.685
   3.080        430.00	    22.716
   3.100        410.00	    22.181
   3.120        463.33	    23.580
   3.140        426.67	    22.627
   3.160        405.83	    22.068
   3.180        440.00	    22.978
   3.200        423.33	    22.539
   3.220        387.50	    21.564
   3.240        436.67	    22.891
   3.260        431.67	    22.760
   3.280        387.50	    21.564
   3.300        413.33	    22.271
   3.320        405.00	    22.045
   3.340        410.83	    22.204
   3.360        428.33	    22.672
   3.380        415.83	    22.338
   3.400        354.17	    20.616
   3.420        380.83	    21.378
   3.440        410.00	    22.181
   3.460        375.00	    21.213
   3.480        382.50	    21.424
   3.500        368.33	    21.024
   3.520        403.33	    22.000
   3.540        354.17	    20.616
   3.560        354.17	    20.616
   3.580        355.83	    20.664
   3.600        365.83	    20.952
   3.620        353.33	    20.591
   3.640        368.33	    21.024
   3.660        349.17	    20.469
   3.680        352.50	    20.567
   3.700        363.33	    20.881
   3.720        324.17	    19.723
   3.740        369.17	    21.048
   3.760        375.83	    21.237
   3.780        345.83	    20.372
   3.800        351.67	    20.543
   3.820        320.83	    19.621
   3.840        347.50	    20.421
   3.860        354.17	    20.616
   3.880        320.83	    19.621
   3.900        352.50	    20.567
   3.920        332.50	    19.975
   3.940        308.33	    19.235
   3.960        329.17	    19.875
   3.980        305.83	    19.157
   4.000        307.50	    19.209
   4.020        334.17	    20.025
   4.040        302.50	    19.053
   4.060        330.83	    19.925
   4.080        305.83	    19.157
   4.100        328.33	    19.849
   4.120        296.67	    18.868
   4.140        304.17	    19.105
   4.160        301.67	    19.026
   4.180        298.33	    18.921
   4.200        316.67	    19.494
   4.220        305.83	    19.157
   4.240        271.67	    18.055
   4.260        305.83	    19.157
   4.280        282.50	    18.412
   4.300        286.67	    18.547
   4.320        311.67	    19.339
   4.340        299.17	    18.947
   4.360        310.00	    19.287
   4.380        280.00	    18.330
   4.400        290.83	    18.682
   4.420        298.33	    18.921
   4.440        260.83	    17.692
   4.460        277.50	    18.248
   4.480        266.67	    17.889
   4.500        248.33	    17.263
   4.520        290.00	    18.655
   4.540        253.33	    17.436
   4.560        273.33	    18.111
   4.580        289.17	    18.628
   4.600        284.17	    18.466
   4.620        290.83	    18.682
   4.640        280.00	    18.330
   4.660        281.67	    18.385
   4.680        286.67	    18.547
   4.700        246.67	    17.205
   4.720        279.17	    18.303
   4.740        253.33	    17.436
   4.760        252.50	    17.407
   4.780        280.83	    18.358
   4.800        238.33	    16.912
   4.820        264.17	    17.804
   4.840        250.00	    17.321
   4.860        244.17	    17.117
   4.880        283.33	    18.439
   4.900        255.00	    17.493
   4.920        207.50	    15.780
   4.940        247.50	    17.234
   4.960        254.17	    17.464
   4.980        257.50	    17.578
   5.000        232.50	    16.703
   5.020        240.00	    16.971
   5.040        231.67	    16.673
   5.060        232.50	    16.703
   5.080        229.17	    16.583
   5.100        228.33	    16.553
   5.120        220.00	    16.248
   5.140        247.50	    17.234
   5.160        233.33	    16.733
   5.180        255.00	    17.493
   5.200        216.67	    16.125
   5.220        253.33	    17.436
   5.240        244.17	    17.117
   5.260        214.17	    16.031
   5.280        250.83	    17.349
   5.300        249.17	    17.292
   5.320        231.67	    16.673
   5.340        215.83	    16.093
   5.360        240.83	    17.000
   5.380        221.67	    16.310
   5.400        221.67	    16.310
   5.420        210.83	    15.906
   5.440        228.33	    16.553
   5.460        220.00	    16.248
   5.480        225.83	    16.462
   5.500        225.00	    16.432
   5.520        231.67	    16.673
   5.540        233.33	    16.733
   5.560        226.67	    16.492
   5.580        221.67	    16.310
   5.600        245.83	    17.176
   5.620        226.67	    16.492
   5.640        236.67	    16.852
   5.660        222.50	    16.340
   5.680        205.83	    15.716
   5.700        209.17	    15.843
   5.720        230.00	    16.613
   5.740        224.17	    16.401
   5.760        235.83	    16.823
   5.780        224.17	    16.401
   5.800        203.33	    15.620
   5.820        221.67	    16.310
   5.840        215.83	    16.093
   5.860        215.83	    16.093
   5.880        222.50	    16.340
   5.900        209.17	    15.843
   5.920        229.17	    16.583
   5.940        213.33	    16.000
   5.960        260.00	    17.664
   5.980        226.67	    16.492
   6.000        227.50	    16.523
   6.020        225.83	    16.462
   6.040        241.67	    17.029
   6.060        257.50	    17.578
   6.080        275.83	    18.193
   6.100        252.50	    17.407
   6.120        265.00	    17.833
   6.140        275.00	    18.166
   6.160        286.67	    18.547
   6.180        305.83	    19.157
   6.200        255.00	    17.493
   6.220        232.50	    16.703
   6.240        215.83	    16.093
   6.260        218.33	    16.186
   6.280        187.50	    15.000
   6.300        190.00	    15.100
   6.320        207.50	    15.780
   6.340        198.33	    15.427
   6.360        190.00	    15.100
   6.380        180.83	    14.731
   6.400        196.67	    15.362
   6.420        195.00	    15.297
   6.440        184.17	    14.866
   6.460        214.17	    16.031
   6.480        195.00	    15.297
   6.500        166.67	    14.142
   6.520        202.50	    15.588
   6.540        172.50	    14.387
   6.560        189.17	    15.067
   6.580        197.50	    15.395
   6.600        221.67	    16.310
   6.620        182.50	    14.799
   6.640        207.50	    15.780
   6.660        180.00	    14.697
   6.680        188.33	    15.033
   6.700        183.33	    14.832
   6.720        183.33	    14.832
   6.740        180.00	    14.697
   6.760        189.17	    15.067
   6.780        180.83	    14.731
   6.800        206.67	    15.748
   6.820        165.00	    14.071
   6.840        197.50	    15.395
   6.860        176.67	    14.560
   6.880        190.00	    15.100
   6.900        169.17	    14.248
   6.920        177.50	    14.595
   6.940        181.67	    14.765
   6.960        197.50	    15.395
   6.980        183.33	    14.832
   7.000        180.83	    14.731
   7.020        177.50	    14.595
   7.040        175.00	    14.491
   7.060        166.67	    14.142
   7.080        173.33	    14.422
   7.100        171.67	    14.353
   7.120        173.33	    14.422
   7.140        152.50	    13.528
   7.160        175.00	    14.491
   7.180        170.00	    14.283
   7.200        190.00	    15.100
   7.220        173.33	    14.422
   7.240        195.83	    15.330
   7.260        186.67	    14.967
   7.280        165.00	    14.071
   7.300        175.00	    14.491
   7.320        154.17	    13.601
   7.340        163.33	    14.000
   7.360        170.83	    14.318
   7.380        184.17	    14.866
   7.400        168.33	    14.213
   7.420        183.33	    14.832
   7.440        177.50	    14.595
   7.460        135.00	    12.728
   7.480        158.33	    13.784
   7.500        143.33	    13.115
   7.520        162.50	    13.964
   7.540        152.50	    13.528
   7.560        177.50	    14.595
   7.580        167.50	    14.177
   7.600        151.67	    13.491
   7.620        174.17	    14.457
   7.640        156.67	    13.711
   7.660        169.17	    14.248
   7.680        157.50	    13.748
   7.700        165.00	    14.071
   7.720        159.17	    13.820
   7.740        150.83	    13.454
   7.760        141.67	    13.038
   7.780        158.33	    13.784
   7.800        175.00	    14.491
   7.820        146.67	    13.266
   7.840        150.83	    13.454
   7.860        163.33	    14.000
   7.880        163.33	    14.000
   7.900        167.50	    14.177
   7.920        145.83	    13.229
   7.940        167.50	    14.177
   7.960        141.67	    13.038
   7.980        148.33	    13.342
   8.000        157.50	    13.748
   8.020        155.00	    13.638
   8.040        150.83	    13.454
   8.060        158.33	    13.784
   8.080        158.33	    13.784
   8.100        147.50	    13.304
   8.120        151.67	    13.491
   8.140        134.17	    12.689
   8.160        158.33	    13.784
   8.180        155.83	    13.675
   8.200        176.67	    14.560
   8.220        154.17	    13.601
   8.240        151.67	    13.491
   8.260        160.83	    13.892
   8.280        144.17	    13.153
   8.300        144.17	    13.153
   8.320        148.33	    13.342
   8.340        145.83	    13.229
   8.360        164.17	    14.036
   8.380        146.67	    13.266
   8.400        140.00	    12.961
   8.420        146.67	    13.266
   8.440        153.33	    13.565
   8.460        143.33	    13.115
   8.480        149.17	    13.379
   8.500        160.00	    13.856
   8.520        155.83	    13.675
   8.540        168.33	    14.213
   8.560        166.67	    14.142
   8.580        170.83	    14.318
   8.600        175.83	    14.526
   8.620        199.17	    15.460
   8.640        186.67	    14.967
   8.660        165.83	    14.107
   8.680        195.83	    15.330
   8.700        215.00	    16.062
   8.720        213.33	    16.000
   8.740        252.50	    17.407
   8.760        290.00	    18.655
   8.780        370.00	    21.071
   8.800        490.83	    24.269
   8.820        537.50	    25.397
   8.840        489.17	    24.228
   8.860        315.83	    19.468
   8.880        190.00	    15.100
   8.900        165.83	    14.107
   8.920        166.67	    14.142
   8.940        142.50	    13.077
   8.960        151.67	    13.491
   8.980        136.67	    12.806
   9.000        155.83	    13.675
   9.020        156.67	    13.711
   9.040        145.00	    13.191
   9.060        140.83	    13.000
   9.080        146.67	    13.266
   9.100        140.83	    13.000
   9.120        144.17	    13.153
   9.140        145.00	    13.191
   9.160        149.17	    13.379
   9.180        131.67	    12.570
   9.200        138.33	    12.884
   9.220        136.67	    12.806
   9.240        135.83	    12.767
   9.260        135.83	    12.767
   9.280        134.17	    12.689
   9.300        117.50	    11.874
   9.320        130.00	    12.490
   9.340        139.17	    12.923
   9.360        139.17	    12.923
   9.380        156.67	    13.711
   9.400        160.00	    13.856
   9.420        142.50	    13.077
   9.440        125.00	    12.247
   9.460        139.17	    12.923
   9.480        124.17	    12.207
   9.500         97.50	    10.817
   9.520        120.83	    12.042
   9.540        120.83	    12.042
   9.560        131.67	    12.570
   9.580        115.00	    11.747
   9.600        114.17	    11.705
   9.620        118.33	    11.916
   9.640        116.67	    11.832
   9.660        126.67	    12.329
   9.680        119.17	    11.958
   9.700        109.17	    11.446
   9.720        132.50	    12.610
   9.740        134.17	    12.689
   9.760        155.83	    13.675
   9.780        127.50	    12.369
   9.800        118.33	    11.916
   9.820        125.83	    12.288
   9.840        115.00	    11.747
   9.860        102.50	    11.091
   9.880        120.00	    12.000
   9.900        120.83	    12.042
   9.920        119.17	    11.958
   9.940        139.17	    12.923
   9.960        105.00	    11.225
   9.980        138.33	    12.884
  10.000        125.00	    12.247
  10.020        104.17	    11.180
  10.040        127.50	    12.369
  10.060         93.33	    10.583
  10.080         95.00	    10.677
  10.100        110.00	    11.489
  10.120        127.50	    12.369
  10.140        103.33	    11.136
  10.160         99.17	    10.909
  10.180        130.00	    12.490
  10.200        116.67	    11.832
  10.220        119.17	    11.958
  10.240        108.33	    11.402
  10.260        114.17	    11.705
  10.280        115.00	    11.747
  10.300         99.17	    10.909
  10.320         97.50	    10.817
  10.340        106.67	    11.314
  10.360        119.17	    11.958
  10.380        134.17	    12.689
  10.400        145.00	    13.191
  10.420        171.67	    14.353
  10.440        231.67	    16.673
  10.460        268.33	    17.944
  10.480        231.67	    16.673
  10.500        147.50	    13.304
  10.520        120.00	    12.000
  10.540        110.83	    11.533
  10.560        112.50	    11.619
  10.580        127.50	    12.369
  10.600        116.67	    11.832
  10.620        114.17	    11.705
  10.640        136.67	    12.806
  10.660        108.33	    11.402
  10.680        118.33	    11.916
  10.700        110.83	    11.533
  10.720        115.00	    11.747
  10.740         88.33	    10.296
  10.760         95.00	    10.677
  10.780        104.17	    11.180
  10.800        103.33	    11.136
  10.820        113.33	    11.662
  10.840        107.50	    11.358
  10.860        102.50	    11.091
  10.880        116.67	    11.832
  10.900        110.00	    11.489
  10.920        109.17	    11.446
  10.940        121.67	    12.083
  10.960         96.67	    10.770
  10.980        113.33	    11.662
  11.000        105.00	    11.225
  11.020        105.83	    11.269
  11.040        100.83	    11.000
  11.060        111.67	    11.576
  11.080        101.67	    11.045
  11.100         95.83	    10.724
  11.120        106.67	    11.314
  11.140         92.50	    10.536
  11.160        110.00	    11.489
  11.180        121.67	    12.083
  11.200         98.33	    10.863
  11.220         95.83	    10.724
  11.240        108.33	    11.402
  11.260        102.50	    11.091
  11.280        100.83	    11.000
  11.300        106.67	    11.314
  11.320         88.33	    10.296
  11.340        102.50	    11.091
  11.360         81.67	     9.899
  11.380         88.33	    10.296
  11.400        114.17	    11.705
  11.420        114.17	    11.705
  11.440        115.83	    11.790
  11.460        105.00	    11.225
  11.480        115.00	    11.747
  11.500        108.33	    11.402
  11.520        109.17	    11.446
  11.540        100.83	    11.000
  11.560        102.50	    11.091
  11.580        102.50	    11.091
  11.600        110.83	    11.533
  11.620         85.83	    10.149
  11.640         98.33	    10.863
  11.660        104.17	    11.180
  11.680         95.83	    10.724
  11.700         93.33	    10.583
  11.720        107.50	    11.358
  11.740         98.33	    10.863
  11.760         96.67	    10.770
  11.780        105.00	    11.225
  11.800        105.83	    11.269
  11.820        118.33	    11.916
  11.840        105.00	    11.225
  11.860        114.17	    11.705
  11.880        124.17	    12.207
  11.900        107.50	    11.358
  11.920        105.83	    11.269
  11.940         98.33	    10.863
  11.960        115.00	    11.747
  11.980        114.17	    11.705
  12.000        123.33	    12.166
  12.020        166.67	    14.142
  12.040        162.50	    13.964
  12.060        212.50	    15.969
  12.080        268.33	    17.944
  12.100        376.67	    21.260
  12.120        490.00	    24.249
  12.140        520.83	    25.000
  12.160        391.67	    21.679
  12.180        268.33	    17.944
  12.200        206.67	    15.748
  12.220        179.17	    14.663
  12.240        183.33	    14.832
  12.260        206.67	    15.748
  12.280        187.50	    15.000
  12.300        181.67	    14.765
  12.320        178.33	    14.629
  12.340        188.33	    15.033
  12.360        195.83	    15.330
  12.380        197.50	    15.395
  12.400        250.00	    17.321
  12.420        300.00	    18.974
  12.440        330.83	    19.925
  12.460        293.33	    18.762
  12.480        226.67	    16.492
  12.500        138.33	    12.884
  12.520        124.17	    12.207
  12.540        111.67	    11.576
  12.560        114.17	    11.705
  12.580        110.83	    11.533
  12.600        104.17	    11.180
  12.620         94.17	    10.630
  12.640        105.00	    11.225
  12.660        100.00	    10.954
  12.680        109.17	    11.446
  12.700        113.33	    11.662
  12.720         95.00	    10.677
  12.740         96.67	    10.770
  12.760        104.17	    11.180
  12.780         81.67	     9.899
  12.800         82.50	     9.950
  12.820         99.17	    10.909
  12.840         85.00	    10.100
  12.860         99.17	    10.909
  12.880         90.83	    10.440
  12.900         95.00	    10.677
  12.920         96.67	    10.770
  12.940         92.50	    10.536
  12.960         74.17	     9.434
  12.980         87.50	    10.247
  13.000         81.67	     9.899
  13.020         98.33	    10.863
  13.040         74.17	     9.434
  13.060         80.83	     9.849
  13.080         87.50	    10.247
  13.100         93.33	    10.583
  13.120         89.17	    10.344
  13.140         81.67	     9.899
  13.160         94.17	    10.630
  13.180         78.33	     9.695
  13.200         81.67	     9.899
  13.220         78.33	     9.695
  13.240         92.50	    10.536
  13.260         95.83	    10.724
  13.280        100.00	    10.954
  13.300         97.50	    10.817
  13.320         88.33	    10.296
  13.340         86.67	    10.198
  13.360        100.83	    11.000
  13.380         89.17	    10.344
  13.400         95.83	    10.724
  13.420         95.00	    10.677
  13.440         78.33	     9.695
  13.460         96.67	    10.770
  13.480         84.17	    10.050
  13.500         79.17	     9.747
  13.520         83.33	    10.000
  13.540         79.17	     9.747
  13.560        111.67	    11.576
  13.580         85.00	    10.100
  13.600         83.33	    10.000
  13.620         80.83	     9.849
  13.640         83.33	    10.000
  13.660         93.33	    10.583
  13.680         85.83	    10.149
  13.700         95.00	    10.677
  13.720         86.67	    10.198
  13.740         96.67	    10.770
  13.760        113.33	    11.662
  13.780        111.67	    11.576
  13.800        105.00	    11.225
  13.820        103.33	    11.136
  13.840         80.00	     9.798
  13.860         90.83	    10.440
  13.880        102.50	    11.091
  13.900         81.67	     9.899
  13.920         94.17	    10.630
  13.940         93.33	    10.583
  13.960         78.33	     9.695
  13.980         85.83	    10.149
  14.000         95.00	    10.677
  14.020         89.17	    10.344
  14.040         69.17	     9.110
  14.060         73.33	     9.381
  14.080         75.00	     9.487
  14.100         75.83	     9.539
  14.120         80.83	     9.849
  14.140         87.50	    10.247
  14.160         72.50	     9.327
  14.180         69.17	     9.110
  14.200         74.17	     9.434
  14.220         71.67	     9.274
  14.240         81.67	     9.899
  14.260         69.17	     9.110
  14.280         78.33	     9.695
  14.300         84.17	    10.050
  14.320         75.83	     9.539
  14.340         75.00	     9.487
  14.360         80.00	     9.798
  14.380         73.33	     9.381
  14.400         73.33	     9.381
