
Filename:
	C:\Program Files\Thermo Electron\WinXRD\Datafiles\F_HERMAN\GEO\G44_RT.raw

File Created:
	February 19, 2020 - 07:46 PM

Specimen Id:
	G44_RT

Specimen Name:
	

Specimen Description:
	

Comment:
Scan Type: 2Theta Scan
Start Angle: 3 deg.
Stop Angle: 65 deg.
Num Points: 3101
Step Size: 0.02 deg.
Scan Rate: 1.000000
Scan Mode: Continuous
Wavelength: 1.540562
\Kalpha1: 1.540562	\Kalpha2: 1.544390	\Kbeta: 1.392218

Optics:
		Detector:
			 Type: Fixed Slits
		Tube: 
			 Type: Fixed Slits


Datas:
 Pos [deg]       Rate [CPS]      ESD [-]

Range 1 ---> Iteration 1
   3.000        466.67	    23.664
   3.020        405.83	    22.068
   3.040        410.00	    22.181
   3.060        419.17	    22.428
   3.080        402.50	    21.977
   3.100        413.33	    22.271
   3.120        396.67	    21.817
   3.140        414.17	    22.293
   3.160        392.50	    21.703
   3.180        400.00	    21.909
   3.200        405.00	    22.045
   3.220        390.83	    21.656
   3.240        385.83	    21.517
   3.260        386.67	    21.541
   3.280        378.33	    21.307
   3.300        366.67	    20.976
   3.320        391.67	    21.679
   3.340        359.17	    20.761
   3.360        374.17	    21.190
   3.380        375.83	    21.237
   3.400        369.17	    21.048
   3.420        352.50	    20.567
   3.440        373.33	    21.166
   3.460        364.17	    20.905
   3.480        366.67	    20.976
   3.500        370.83	    21.095
   3.520        353.33	    20.591
   3.540        336.67	    20.100
   3.560        332.50	    19.975
   3.580        338.33	    20.149
   3.600        343.33	    20.298
   3.620        329.17	    19.875
   3.640        358.33	    20.736
   3.660        310.00	    19.287
   3.680        341.67	    20.248
   3.700        327.50	    19.824
   3.720        321.67	    19.647
   3.740        345.00	    20.347
   3.760        295.83	    18.841
   3.780        303.33	    19.079
   3.800        330.83	    19.925
   3.820        307.50	    19.209
   3.840        340.83	    20.224
   3.860        299.17	    18.947
   3.880        283.33	    18.439
   3.900        299.17	    18.947
   3.920        308.33	    19.235
   3.940        333.33	    20.000
   3.960        313.33	    19.391
   3.980        278.33	    18.276
   4.000        297.50	    18.894
   4.020        308.33	    19.235
   4.040        283.33	    18.439
   4.060        310.83	    19.313
   4.080        317.50	    19.519
   4.100        280.83	    18.358
   4.120        278.33	    18.276
   4.140        266.67	    17.889
   4.160        288.33	    18.601
   4.180        267.50	    17.916
   4.200        298.33	    18.921
   4.220        295.83	    18.841
   4.240        290.00	    18.655
   4.260        292.50	    18.735
   4.280        296.67	    18.868
   4.300        294.17	    18.788
   4.320        270.00	    18.000
   4.340        252.50	    17.407
   4.360        282.50	    18.412
   4.380        286.67	    18.547
   4.400        261.67	    17.720
   4.420        268.33	    17.944
   4.440        282.50	    18.412
   4.460        251.67	    17.378
   4.480        264.17	    17.804
   4.500        253.33	    17.436
   4.520        262.50	    17.748
   4.540        239.17	    16.941
   4.560        262.50	    17.748
   4.580        251.67	    17.378
   4.600        244.17	    17.117
   4.620        267.50	    17.916
   4.640        234.17	    16.763
   4.660        257.50	    17.578
   4.680        230.00	    16.613
   4.700        233.33	    16.733
   4.720        238.33	    16.912
   4.740        223.33	    16.371
   4.760        254.17	    17.464
   4.780        225.83	    16.462
   4.800        245.83	    17.176
   4.820        232.50	    16.703
   4.840        258.33	    17.607
   4.860        239.17	    16.941
   4.880        231.67	    16.673
   4.900        254.17	    17.464
   4.920        257.50	    17.578
   4.940        240.00	    16.971
   4.960        244.17	    17.117
   4.980        229.17	    16.583
   5.000        240.00	    16.971
   5.020        250.00	    17.321
   5.040        217.50	    16.155
   5.060        225.83	    16.462
   5.080        210.83	    15.906
   5.100        225.00	    16.432
   5.120        238.33	    16.912
   5.140        218.33	    16.186
   5.160        200.00	    15.492
   5.180        205.83	    15.716
   5.200        231.67	    16.673
   5.220        237.50	    16.882
   5.240        209.17	    15.843
   5.260        234.17	    16.763
   5.280        216.67	    16.125
   5.300        220.83	    16.279
   5.320        221.67	    16.310
   5.340        202.50	    15.588
   5.360        214.17	    16.031
   5.380        221.67	    16.310
   5.400        216.67	    16.125
   5.420        215.83	    16.093
   5.440        186.67	    14.967
   5.460        216.67	    16.125
   5.480        207.50	    15.780
   5.500        218.33	    16.186
   5.520        239.17	    16.941
   5.540        210.00	    15.875
   5.560        206.67	    15.748
   5.580        215.00	    16.062
   5.600        217.50	    16.155
   5.620        195.00	    15.297
   5.640        232.50	    16.703
   5.660        190.00	    15.100
   5.680        203.33	    15.620
   5.700        220.00	    16.248
   5.720        206.67	    15.748
   5.740        215.00	    16.062
   5.760        200.00	    15.492
   5.780        235.83	    16.823
   5.800        221.67	    16.310
   5.820        212.50	    15.969
   5.840        215.83	    16.093
   5.860        250.83	    17.349
   5.880        242.50	    17.059
   5.900        254.17	    17.464
   5.920        283.33	    18.439
   5.940        269.17	    17.972
   5.960        266.67	    17.889
   5.980        253.33	    17.436
   6.000        253.33	    17.436
   6.020        231.67	    16.673
   6.040        226.67	    16.492
   6.060        256.67	    17.550
   6.080        252.50	    17.407
   6.100        259.17	    17.635
   6.120        235.00	    16.793
   6.140        252.50	    17.407
   6.160        277.50	    18.248
   6.180        250.83	    17.349
   6.200        246.67	    17.205
   6.220        240.00	    16.971
   6.240        253.33	    17.436
   6.260        230.00	    16.613
   6.280        206.67	    15.748
   6.300        183.33	    14.832
   6.320        181.67	    14.765
   6.340        193.33	    15.232
   6.360        184.17	    14.866
   6.380        195.00	    15.297
   6.400        181.67	    14.765
   6.420        184.17	    14.866
   6.440        162.50	    13.964
   6.460        178.33	    14.629
   6.480        177.50	    14.595
   6.500        201.67	    15.556
   6.520        162.50	    13.964
   6.540        177.50	    14.595
   6.560        170.83	    14.318
   6.580        180.83	    14.731
   6.600        175.83	    14.526
   6.620        177.50	    14.595
   6.640        189.17	    15.067
   6.660        173.33	    14.422
   6.680        170.00	    14.283
   6.700        178.33	    14.629
   6.720        179.17	    14.663
   6.740        173.33	    14.422
   6.760        189.17	    15.067
   6.780        165.83	    14.107
   6.800        168.33	    14.213
   6.820        180.83	    14.731
   6.840        165.00	    14.071
   6.860        161.67	    13.928
   6.880        195.83	    15.330
   6.900        150.00	    13.416
   6.920        164.17	    14.036
   6.940        161.67	    13.928
   6.960        176.67	    14.560
   6.980        179.17	    14.663
   7.000        146.67	    13.266
   7.020        167.50	    14.177
   7.040        162.50	    13.964
   7.060        155.00	    13.638
   7.080        145.83	    13.229
   7.100        155.83	    13.675
   7.120        137.50	    12.845
   7.140        159.17	    13.820
   7.160        153.33	    13.565
   7.180        172.50	    14.387
   7.200        150.83	    13.454
   7.220        161.67	    13.928
   7.240        156.67	    13.711
   7.260        145.00	    13.191
   7.280        163.33	    14.000
   7.300        144.17	    13.153
   7.320        145.83	    13.229
   7.340        161.67	    13.928
   7.360        141.67	    13.038
   7.380        134.17	    12.689
   7.400        151.67	    13.491
   7.420        135.83	    12.767
   7.440        147.50	    13.304
   7.460        148.33	    13.342
   7.480        148.33	    13.342
   7.500        140.83	    13.000
   7.520        155.00	    13.638
   7.540        141.67	    13.038
   7.560        137.50	    12.845
   7.580        147.50	    13.304
   7.600        126.67	    12.329
   7.620        140.83	    13.000
   7.640        157.50	    13.748
   7.660        147.50	    13.304
   7.680        159.17	    13.820
   7.700        145.83	    13.229
   7.720        155.83	    13.675
   7.740        145.83	    13.229
   7.760        152.50	    13.528
   7.780        150.83	    13.454
   7.800        129.17	    12.450
   7.820        149.17	    13.379
   7.840        146.67	    13.266
   7.860        137.50	    12.845
   7.880        150.83	    13.454
   7.900        138.33	    12.884
   7.920        131.67	    12.570
   7.940        145.00	    13.191
   7.960        133.33	    12.649
   7.980        115.83	    11.790
   8.000        155.00	    13.638
   8.020        155.00	    13.638
   8.040        138.33	    12.884
   8.060        145.83	    13.229
   8.080        138.33	    12.884
   8.100        135.00	    12.728
   8.120        115.00	    11.747
   8.140        147.50	    13.304
   8.160        134.17	    12.689
   8.180        137.50	    12.845
   8.200        135.00	    12.728
   8.220        127.50	    12.369
   8.240        140.83	    13.000
   8.260        130.83	    12.530
   8.280        140.83	    13.000
   8.300        145.83	    13.229
   8.320        132.50	    12.610
   8.340        125.00	    12.247
   8.360        147.50	    13.304
   8.380        138.33	    12.884
   8.400        160.00	    13.856
   8.420        137.50	    12.845
   8.440        141.67	    13.038
   8.460        148.33	    13.342
   8.480        158.33	    13.784
   8.500        146.67	    13.266
   8.520        162.50	    13.964
   8.540        145.83	    13.229
   8.560        180.00	    14.697
   8.580        169.17	    14.248
   8.600        157.50	    13.748
   8.620        197.50	    15.395
   8.640        183.33	    14.832
   8.660        200.00	    15.492
   8.680        203.33	    15.620
   8.700        190.00	    15.100
   8.720        272.50	    18.083
   8.740        291.67	    18.708
   8.760        312.50	    19.365
   8.780        341.67	    20.248
   8.800        484.17	    24.104
   8.820        629.17	    27.477
   8.840        797.50	    30.935
   8.860        795.83	    30.903
   8.880        644.17	    27.803
   8.900        408.33	    22.136
   8.920        255.00	    17.493
   8.940        167.50	    14.177
   8.960        167.50	    14.177
   8.980        161.67	    13.928
   9.000        134.17	    12.689
   9.020        128.33	    12.410
   9.040        129.17	    12.450
   9.060        156.67	    13.711
   9.080        131.67	    12.570
   9.100        132.50	    12.610
   9.120        132.50	    12.610
   9.140        146.67	    13.266
   9.160        130.83	    12.530
   9.180        144.17	    13.153
   9.200        117.50	    11.874
   9.220        128.33	    12.410
   9.240        119.17	    11.958
   9.260        134.17	    12.689
   9.280        121.67	    12.083
   9.300        135.00	    12.728
   9.320        135.83	    12.767
   9.340        120.00	    12.000
   9.360        121.67	    12.083
   9.380        120.83	    12.042
   9.400        137.50	    12.845
   9.420        125.83	    12.288
   9.440        115.00	    11.747
   9.460        115.00	    11.747
   9.480        115.00	    11.747
   9.500        110.00	    11.489
   9.520        116.67	    11.832
   9.540         95.00	    10.677
   9.560        110.83	    11.533
   9.580        110.00	    11.489
   9.600        107.50	    11.358
   9.620        109.17	    11.446
   9.640        108.33	    11.402
   9.660        106.67	    11.314
   9.680         83.33	    10.000
   9.700        100.83	    11.000
   9.720        112.50	    11.619
   9.740        109.17	    11.446
   9.760        110.83	    11.533
   9.780        109.17	    11.446
   9.800        102.50	    11.091
   9.820        110.83	    11.533
   9.840        102.50	    11.091
   9.860         99.17	    10.909
   9.880        110.00	    11.489
   9.900         90.83	    10.440
   9.920        114.17	    11.705
   9.940        103.33	    11.136
   9.960        112.50	    11.619
   9.980         95.83	    10.724
  10.000         95.83	    10.724
  10.020         95.00	    10.677
  10.040        116.67	    11.832
  10.060         96.67	    10.770
  10.080        101.67	    11.045
  10.100         90.83	    10.440
  10.120        103.33	    11.136
  10.140        101.67	    11.045
  10.160        102.50	    11.091
  10.180         93.33	    10.583
  10.200        117.50	    11.874
  10.220        113.33	    11.662
  10.240        112.50	    11.619
  10.260        104.17	    11.180
  10.280        106.67	    11.314
  10.300        115.00	    11.747
  10.320        103.33	    11.136
  10.340        105.83	    11.269
  10.360         82.50	     9.950
  10.380        113.33	    11.662
  10.400        109.17	    11.446
  10.420        123.33	    12.166
  10.440        143.33	    13.115
  10.460        125.83	    12.288
  10.480        136.67	    12.806
  10.500        172.50	    14.387
  10.520        143.33	    13.115
  10.540        129.17	    12.450
  10.560        102.50	    11.091
  10.580         90.83	    10.440
  10.600        117.50	    11.874
  10.620        105.00	    11.225
  10.640         90.00	    10.392
  10.660         88.33	    10.296
  10.680         95.83	    10.724
  10.700         82.50	     9.950
  10.720         90.00	    10.392
  10.740         90.83	    10.440
  10.760         88.33	    10.296
  10.780         85.00	    10.100
  10.800         94.17	    10.630
  10.820         92.50	    10.536
  10.840         85.83	    10.149
  10.860         73.33	     9.381
  10.880         81.67	     9.899
  10.900        105.00	    11.225
  10.920        104.17	    11.180
  10.940        110.00	    11.489
  10.960         90.00	    10.392
  10.980         96.67	    10.770
  11.000         88.33	    10.296
  11.020         92.50	    10.536
  11.040         94.17	    10.630
  11.060         79.17	     9.747
  11.080         89.17	    10.344
  11.100         80.83	     9.849
  11.120         77.50	     9.644
  11.140         91.67	    10.488
  11.160         99.17	    10.909
  11.180         86.67	    10.198
  11.200         89.17	    10.344
  11.220         85.00	    10.100
  11.240         85.00	    10.100
  11.260         81.67	     9.899
  11.280        105.00	    11.225
  11.300         95.00	    10.677
  11.320         90.00	    10.392
  11.340         90.83	    10.440
  11.360         89.17	    10.344
  11.380         81.67	     9.899
  11.400         80.83	     9.849
  11.420         97.50	    10.817
  11.440         89.17	    10.344
  11.460         96.67	    10.770
  11.480         92.50	    10.536
  11.500         99.17	    10.909
  11.520         92.50	    10.536
  11.540         90.00	    10.392
  11.560         86.67	    10.198
  11.580        110.83	    11.533
  11.600         95.00	    10.677
  11.620         89.17	    10.344
  11.640         85.83	    10.149
  11.660         87.50	    10.247
  11.680         94.17	    10.630
  11.700         80.83	     9.849
  11.720         76.67	     9.592
  11.740         84.17	    10.050
  11.760         95.00	    10.677
  11.780         93.33	    10.583
  11.800        105.83	    11.269
  11.820        105.00	    11.225
  11.840         96.67	    10.770
  11.860         83.33	    10.000
  11.880         96.67	    10.770
  11.900        108.33	    11.402
  11.920        105.00	    11.225
  11.940         86.67	    10.198
  11.960         99.17	    10.909
  11.980         99.17	    10.909
  12.000        102.50	    11.091
  12.020        120.00	    12.000
  12.040        115.83	    11.790
  12.060        149.17	    13.379
  12.080        174.17	    14.457
  12.100        174.17	    14.457
  12.120        212.50	    15.969
  12.140        245.00	    17.146
  12.160        295.83	    18.841
  12.180        261.67	    17.720
  12.200        210.00	    15.875
  12.220        164.17	    14.036
  12.240        139.17	    12.923
  12.260        131.67	    12.570
  12.280        160.00	    13.856
  12.300        149.17	    13.379
  12.320        158.33	    13.784
  12.340        164.17	    14.036
  12.360        143.33	    13.115
  12.380        169.17	    14.248
  12.400        177.50	    14.595
  12.420        209.17	    15.843
  12.440        258.33	    17.607
  12.460        308.33	    19.235
  12.480        300.83	    19.000
  12.500        281.67	    18.385
  12.520        210.00	    15.875
  12.540        137.50	    12.845
  12.560        118.33	    11.916
  12.580        117.50	    11.874
  12.600         99.17	    10.909
  12.620         89.17	    10.344
  12.640         85.00	    10.100
  12.660         83.33	    10.000
  12.680         75.83	     9.539
  12.700         85.00	    10.100
  12.720         80.00	     9.798
  12.740         80.00	     9.798
  12.760         81.67	     9.899
  12.780         89.17	    10.344
  12.800         82.50	     9.950
  12.820         68.33	     9.055
  12.840         75.83	     9.539
  12.860         86.67	    10.198
  12.880         80.00	     9.798
  12.900         71.67	     9.274
  12.920         87.50	    10.247
  12.940         71.67	     9.274
  12.960         83.33	    10.000
  12.980         82.50	     9.950
  13.000         92.50	    10.536
  13.020         83.33	    10.000
  13.040         84.17	    10.050
  13.060         71.67	     9.274
  13.080         70.00	     9.165
  13.100         76.67	     9.592
  13.120         70.00	     9.165
  13.140         77.50	     9.644
  13.160         55.83	     8.185
  13.180         68.33	     9.055
  13.200         70.00	     9.165
  13.220         65.00	     8.832
  13.240         79.17	     9.747
  13.260         81.67	     9.899
  13.280         75.83	     9.539
  13.300         71.67	     9.274
  13.320         94.17	    10.630
  13.340         80.83	     9.849
  13.360         72.50	     9.327
  13.380         70.00	     9.165
  13.400         69.17	     9.110
  13.420         79.17	     9.747
  13.440         76.67	     9.592
  13.460         88.33	    10.296
  13.480         82.50	     9.950
  13.500         63.33	     8.718
  13.520         66.67	     8.944
  13.540         70.83	     9.220
  13.560         94.17	    10.630
  13.580        106.67	    11.314
  13.600         89.17	    10.344
  13.620         59.17	     8.426
  13.640         64.17	     8.775
  13.660         86.67	    10.198
  13.680         85.83	    10.149
  13.700         65.00	     8.832
  13.720         99.17	    10.909
  13.740         70.00	     9.165
  13.760         85.83	    10.149
  13.780         79.17	     9.747
  13.800         89.17	    10.344
  13.820        121.67	    12.083
  13.840         81.67	     9.899
  13.860         90.00	    10.392
  13.880         74.17	     9.434
  13.900         90.00	    10.392
  13.920         69.17	     9.110
  13.940         85.83	    10.149
  13.960         77.50	     9.644
  13.980         79.17	     9.747
  14.000         76.67	     9.592
  14.020         72.50	     9.327
  14.040         60.00	     8.485
  14.060         73.33	     9.381
  14.080         63.33	     8.718
  14.100         73.33	     9.381
  14.120         65.00	     8.832
  14.140         75.00	     9.487
  14.160         67.50	     9.000
  14.180         75.83	     9.539
  14.200         72.50	     9.327
  14.220         76.67	     9.592
  14.240         84.17	    10.050
  14.260         68.33	     9.055
  14.280         82.50	     9.950
  14.300         66.67	     8.944
  14.320         62.50	     8.660
  14.340         65.83	     8.888
  14.360         76.67	     9.592
  14.380         73.33	     9.381
  14.400         56.67	     8.246
