
Filename:
	C:\Program Files\Thermo Electron\WinXRD\Datafiles\F_HERMAN\GEO\G46_RT.raw

File Created:
	February 18, 2020 - 11:23 PM

Specimen Id:
	G46_RT

Specimen Name:
	

Specimen Description:
	

Comment:
Scan Type: 2Theta Scan
Start Angle: 3 deg.
Stop Angle: 65 deg.
Num Points: 3101
Step Size: 0.02 deg.
Scan Rate: 1.000000
Scan Mode: Continuous
Wavelength: 1.540562
\Kalpha1: 1.540562	\Kalpha2: 1.544390	\Kbeta: 1.392218

Optics:
		Detector:
			 Type: Fixed Slits
		Tube: 
			 Type: Fixed Slits


Datas:
 Pos [deg]       Rate [CPS]      ESD [-]

Range 1 ---> Iteration 1
   3.000        441.67	    23.022
   3.020        445.83	    23.130
   3.040        448.33	    23.195
   3.060        398.33	    21.863
   3.080        460.83	    23.516
   3.100        420.00	    22.450
   3.120        406.67	    22.091
   3.140        431.67	    22.760
   3.160        399.17	    21.886
   3.180        416.67	    22.361
   3.200        414.17	    22.293
   3.220        409.17	    22.159
   3.240        398.33	    21.863
   3.260        405.00	    22.045
   3.280        407.50	    22.113
   3.300        413.33	    22.271
   3.320        365.83	    20.952
   3.340        372.50	    21.142
   3.360        367.50	    21.000
   3.380        396.67	    21.817
   3.400        404.17	    22.023
   3.420        384.17	    21.471
   3.440        363.33	    20.881
   3.460        363.33	    20.881
   3.480        340.83	    20.224
   3.500        360.00	    20.785
   3.520        374.17	    21.190
   3.540        362.50	    20.857
   3.560        365.00	    20.928
   3.580        363.33	    20.881
   3.600        342.50	    20.273
   3.620        356.67	    20.688
   3.640        331.67	    19.950
   3.660        365.83	    20.952
   3.680        353.33	    20.591
   3.700        343.33	    20.298
   3.720        378.33	    21.307
   3.740        332.50	    19.975
   3.760        352.50	    20.567
   3.780        356.67	    20.688
   3.800        342.50	    20.273
   3.820        360.00	    20.785
   3.840        305.00	    19.131
   3.860        330.00	    19.900
   3.880        325.00	    19.748
   3.900        352.50	    20.567
   3.920        350.00	    20.494
   3.940        342.50	    20.273
   3.960        307.50	    19.209
   3.980        333.33	    20.000
   4.000        318.33	    19.545
   4.020        315.83	    19.468
   4.040        275.83	    18.193
   4.060        322.50	    19.672
   4.080        310.00	    19.287
   4.100        311.67	    19.339
   4.120        285.83	    18.520
   4.140        315.83	    19.468
   4.160        276.67	    18.221
   4.180        304.17	    19.105
   4.200        311.67	    19.339
   4.220        279.17	    18.303
   4.240        278.33	    18.276
   4.260        310.00	    19.287
   4.280        324.17	    19.723
   4.300        308.33	    19.235
   4.320        302.50	    19.053
   4.340        291.67	    18.708
   4.360        274.17	    18.138
   4.380        334.17	    20.025
   4.400        285.83	    18.520
   4.420        275.83	    18.193
   4.440        303.33	    19.079
   4.460        309.17	    19.261
   4.480        284.17	    18.466
   4.500        276.67	    18.221
   4.520        255.00	    17.493
   4.540        265.00	    17.833
   4.560        298.33	    18.921
   4.580        284.17	    18.466
   4.600        268.33	    17.944
   4.620        298.33	    18.921
   4.640        287.50	    18.574
   4.660        275.00	    18.166
   4.680        247.50	    17.234
   4.700        248.33	    17.263
   4.720        263.33	    17.776
   4.740        248.33	    17.263
   4.760        225.00	    16.432
   4.780        240.83	    17.000
   4.800        253.33	    17.436
   4.820        250.83	    17.349
   4.840        275.00	    18.166
   4.860        240.00	    16.971
   4.880        246.67	    17.205
   4.900        250.83	    17.349
   4.920        232.50	    16.703
   4.940        262.50	    17.748
   4.960        265.00	    17.833
   4.980        266.67	    17.889
   5.000        245.00	    17.146
   5.020        246.67	    17.205
   5.040        223.33	    16.371
   5.060        225.00	    16.432
   5.080        245.00	    17.146
   5.100        227.50	    16.523
   5.120        249.17	    17.292
   5.140        239.17	    16.941
   5.160        224.17	    16.401
   5.180        226.67	    16.492
   5.200        223.33	    16.371
   5.220        220.00	    16.248
   5.240        230.00	    16.613
   5.260        225.00	    16.432
   5.280        230.83	    16.643
   5.300        217.50	    16.155
   5.320        232.50	    16.703
   5.340        213.33	    16.000
   5.360        243.33	    17.088
   5.380        230.00	    16.613
   5.400        235.83	    16.823
   5.420        225.00	    16.432
   5.440        228.33	    16.553
   5.460        237.50	    16.882
   5.480        234.17	    16.763
   5.500        245.00	    17.146
   5.520        253.33	    17.436
   5.540        217.50	    16.155
   5.560        207.50	    15.780
   5.580        217.50	    16.155
   5.600        215.00	    16.062
   5.620        188.33	    15.033
   5.640        215.00	    16.062
   5.660        209.17	    15.843
   5.680        210.83	    15.906
   5.700        210.83	    15.906
   5.720        195.00	    15.297
   5.740        223.33	    16.371
   5.760        225.00	    16.432
   5.780        219.17	    16.217
   5.800        206.67	    15.748
   5.820        208.33	    15.811
   5.840        255.00	    17.493
   5.860        242.50	    17.059
   5.880        211.67	    15.937
   5.900        217.50	    16.155
   5.920        220.00	    16.248
   5.940        229.17	    16.583
   5.960        231.67	    16.673
   5.980        255.83	    17.521
   6.000        259.17	    17.635
   6.020        285.83	    18.520
   6.040        251.67	    17.378
   6.060        230.83	    16.643
   6.080        245.83	    17.176
   6.100        258.33	    17.607
   6.120        290.00	    18.655
   6.140        264.17	    17.804
   6.160        309.17	    19.261
   6.180        295.00	    18.815
   6.200        266.67	    17.889
   6.220        218.33	    16.186
   6.240        223.33	    16.371
   6.260        196.67	    15.362
   6.280        206.67	    15.748
   6.300        198.33	    15.427
   6.320        200.83	    15.524
   6.340        211.67	    15.937
   6.360        211.67	    15.937
   6.380        210.83	    15.906
   6.400        210.83	    15.906
   6.420        190.83	    15.133
   6.440        203.33	    15.620
   6.460        185.00	    14.900
   6.480        178.33	    14.629
   6.500        202.50	    15.588
   6.520        210.00	    15.875
   6.540        210.83	    15.906
   6.560        214.17	    16.031
   6.580        193.33	    15.232
   6.600        183.33	    14.832
   6.620        188.33	    15.033
   6.640        213.33	    16.000
   6.660        195.00	    15.297
   6.680        190.83	    15.133
   6.700        195.00	    15.297
   6.720        191.67	    15.166
   6.740        185.00	    14.900
   6.760        198.33	    15.427
   6.780        200.83	    15.524
   6.800        186.67	    14.967
   6.820        210.00	    15.875
   6.840        186.67	    14.967
   6.860        184.17	    14.866
   6.880        193.33	    15.232
   6.900        233.33	    16.733
   6.920        170.00	    14.283
   6.940        216.67	    16.125
   6.960        188.33	    15.033
   6.980        187.50	    15.000
   7.000        184.17	    14.866
   7.020        211.67	    15.937
   7.040        173.33	    14.422
   7.060        171.67	    14.353
   7.080        192.50	    15.199
   7.100        174.17	    14.457
   7.120        179.17	    14.663
   7.140        177.50	    14.595
   7.160        175.00	    14.491
   7.180        195.83	    15.330
   7.200        170.83	    14.318
   7.220        175.83	    14.526
   7.240        180.83	    14.731
   7.260        165.83	    14.107
   7.280        208.33	    15.811
   7.300        158.33	    13.784
   7.320        177.50	    14.595
   7.340        172.50	    14.387
   7.360        195.00	    15.297
   7.380        147.50	    13.304
   7.400        156.67	    13.711
   7.420        168.33	    14.213
   7.440        148.33	    13.342
   7.460        158.33	    13.784
   7.480        167.50	    14.177
   7.500        128.33	    12.410
   7.520        168.33	    14.213
   7.540        170.83	    14.318
   7.560        144.17	    13.153
   7.580        142.50	    13.077
   7.600        143.33	    13.115
   7.620        161.67	    13.928
   7.640        162.50	    13.964
   7.660        144.17	    13.153
   7.680        155.83	    13.675
   7.700        165.00	    14.071
   7.720        151.67	    13.491
   7.740        138.33	    12.884
   7.760        165.83	    14.107
   7.780        157.50	    13.748
   7.800        180.00	    14.697
   7.820        138.33	    12.884
   7.840        158.33	    13.784
   7.860        180.83	    14.731
   7.880        152.50	    13.528
   7.900        171.67	    14.353
   7.920        149.17	    13.379
   7.940        140.83	    13.000
   7.960        151.67	    13.491
   7.980        151.67	    13.491
   8.000        155.83	    13.675
   8.020        159.17	    13.820
   8.040        152.50	    13.528
   8.060        145.00	    13.191
   8.080        137.50	    12.845
   8.100        140.83	    13.000
   8.120        171.67	    14.353
   8.140        165.00	    14.071
   8.160        156.67	    13.711
   8.180        156.67	    13.711
   8.200        155.83	    13.675
   8.220        146.67	    13.266
   8.240        135.83	    12.767
   8.260        132.50	    12.610
   8.280        141.67	    13.038
   8.300        165.83	    14.107
   8.320        167.50	    14.177
   8.340        152.50	    13.528
   8.360        173.33	    14.422
   8.380        160.83	    13.892
   8.400        154.17	    13.601
   8.420        162.50	    13.964
   8.440        164.17	    14.036
   8.460        170.83	    14.318
   8.480        174.17	    14.457
   8.500        143.33	    13.115
   8.520        171.67	    14.353
   8.540        165.00	    14.071
   8.560        163.33	    14.000
   8.580        182.50	    14.799
   8.600        196.67	    15.362
   8.620        200.00	    15.492
   8.640        193.33	    15.232
   8.660        220.83	    16.279
   8.680        232.50	    16.703
   8.700        251.67	    17.378
   8.720        274.17	    18.138
   8.740        287.50	    18.574
   8.760        362.50	    20.857
   8.780        558.33	    25.884
   8.800        693.33	    28.844
   8.820        750.83	    30.017
   8.840        736.67	    29.732
   8.860        423.33	    22.539
   8.880        254.17	    17.464
   8.900        191.67	    15.166
   8.920        157.50	    13.748
   8.940        168.33	    14.213
   8.960        158.33	    13.784
   8.980        160.00	    13.856
   9.000        139.17	    12.923
   9.020        142.50	    13.077
   9.040        141.67	    13.038
   9.060        145.83	    13.229
   9.080        137.50	    12.845
   9.100        165.83	    14.107
   9.120        170.83	    14.318
   9.140        140.83	    13.000
   9.160        145.00	    13.191
   9.180        117.50	    11.874
   9.200        143.33	    13.115
   9.220        115.00	    11.747
   9.240        140.00	    12.961
   9.260        129.17	    12.450
   9.280        118.33	    11.916
   9.300        130.00	    12.490
   9.320        142.50	    13.077
   9.340        124.17	    12.207
   9.360        167.50	    14.177
   9.380        168.33	    14.213
   9.400        168.33	    14.213
   9.420        153.33	    13.565
   9.440        121.67	    12.083
   9.460        131.67	    12.570
   9.480        124.17	    12.207
   9.500        118.33	    11.916
   9.520        135.00	    12.728
   9.540        114.17	    11.705
   9.560        117.50	    11.874
   9.580        123.33	    12.166
   9.600        132.50	    12.610
   9.620        122.50	    12.124
   9.640        124.17	    12.207
   9.660        111.67	    11.576
   9.680        124.17	    12.207
   9.700        132.50	    12.610
   9.720        145.83	    13.229
   9.740        123.33	    12.166
   9.760        150.00	    13.416
   9.780        130.00	    12.490
   9.800        110.00	    11.489
   9.820        131.67	    12.570
   9.840        124.17	    12.207
   9.860        122.50	    12.124
   9.880        103.33	    11.136
   9.900        124.17	    12.207
   9.920        100.83	    11.000
   9.940        120.00	    12.000
   9.960        118.33	    11.916
   9.980        121.67	    12.083
  10.000        134.17	    12.689
  10.020         97.50	    10.817
  10.040        119.17	    11.958
  10.060        125.00	    12.247
  10.080        114.17	    11.705
  10.100        118.33	    11.916
  10.120        108.33	    11.402
  10.140         91.67	    10.488
  10.160        101.67	    11.045
  10.180        114.17	    11.705
  10.200        115.00	    11.747
  10.220        100.00	    10.954
  10.240        112.50	    11.619
  10.260         98.33	    10.863
  10.280        112.50	    11.619
  10.300         94.17	    10.630
  10.320        110.83	    11.533
  10.340        137.50	    12.845
  10.360        104.17	    11.180
  10.380        149.17	    13.379
  10.400        123.33	    12.166
  10.420        145.83	    13.229
  10.440        180.00	    14.697
  10.460        215.00	    16.062
  10.480        205.83	    15.716
  10.500        174.17	    14.457
  10.520        148.33	    13.342
  10.540        134.17	    12.689
  10.560        125.00	    12.247
  10.580        104.17	    11.180
  10.600        116.67	    11.832
  10.620        114.17	    11.705
  10.640        115.00	    11.747
  10.660        103.33	    11.136
  10.680        102.50	    11.091
  10.700        105.83	    11.269
  10.720        109.17	    11.446
  10.740        109.17	    11.446
  10.760         95.00	    10.677
  10.780        108.33	    11.402
  10.800        130.83	    12.530
  10.820        102.50	    11.091
  10.840        112.50	    11.619
  10.860        118.33	    11.916
  10.880        100.00	    10.954
  10.900        114.17	    11.705
  10.920        109.17	    11.446
  10.940        110.00	    11.489
  10.960        124.17	    12.207
  10.980        105.83	    11.269
  11.000        108.33	    11.402
  11.020        123.33	    12.166
  11.040        124.17	    12.207
  11.060        108.33	    11.402
  11.080        110.83	    11.533
  11.100        112.50	    11.619
  11.120        107.50	    11.358
  11.140         82.50	     9.950
  11.160         95.00	    10.677
  11.180        114.17	    11.705
  11.200        102.50	    11.091
  11.220         97.50	    10.817
  11.240        100.83	    11.000
  11.260        110.83	    11.533
  11.280        104.17	    11.180
  11.300        100.83	    11.000
  11.320         82.50	     9.950
  11.340         83.33	    10.000
  11.360         88.33	    10.296
  11.380        104.17	    11.180
  11.400         96.67	    10.770
  11.420         85.83	    10.149
  11.440        101.67	    11.045
  11.460         94.17	    10.630
  11.480         95.00	    10.677
  11.500         95.00	    10.677
  11.520         93.33	    10.583
  11.540         87.50	    10.247
  11.560         95.83	    10.724
  11.580        115.00	    11.747
  11.600        107.50	    11.358
  11.620        107.50	    11.358
  11.640        101.67	    11.045
  11.660        100.00	    10.954
  11.680        105.00	    11.225
  11.700        104.17	    11.180
  11.720         99.17	    10.909
  11.740        100.00	    10.954
  11.760        102.50	    11.091
  11.780        110.00	    11.489
  11.800        112.50	    11.619
  11.820        104.17	    11.180
  11.840        103.33	    11.136
  11.860        112.50	    11.619
  11.880        116.67	    11.832
  11.900        100.00	    10.954
  11.920        102.50	    11.091
  11.940        107.50	    11.358
  11.960        107.50	    11.358
  11.980        130.00	    12.490
  12.000        151.67	    13.491
  12.020        137.50	    12.845
  12.040        138.33	    12.884
  12.060        191.67	    15.166
  12.080        207.50	    15.780
  12.100        290.83	    18.682
  12.120        398.33	    21.863
  12.140        385.83	    21.517
  12.160        384.17	    21.471
  12.180        255.00	    17.493
  12.200        196.67	    15.362
  12.220        165.00	    14.071
  12.240        186.67	    14.967
  12.260        197.50	    15.395
  12.280        211.67	    15.937
  12.300        190.83	    15.133
  12.320        204.17	    15.652
  12.340        190.00	    15.100
  12.360        215.00	    16.062
  12.380        232.50	    16.703
  12.400        246.67	    17.205
  12.420        325.83	    19.774
  12.440        320.83	    19.621
  12.460        333.33	    20.000
  12.480        221.67	    16.310
  12.500        161.67	    13.928
  12.520        148.33	    13.342
  12.540        120.00	    12.000
  12.560        115.00	    11.747
  12.580         92.50	    10.536
  12.600        117.50	    11.874
  12.620        108.33	    11.402
  12.640         89.17	    10.344
  12.660        100.00	    10.954
  12.680        100.83	    11.000
  12.700         93.33	    10.583
  12.720         86.67	    10.198
  12.740         88.33	    10.296
  12.760         79.17	     9.747
  12.780         90.83	    10.440
  12.800         92.50	    10.536
  12.820         99.17	    10.909
  12.840         77.50	     9.644
  12.860         84.17	    10.050
  12.880         86.67	    10.198
  12.900         97.50	    10.817
  12.920         90.00	    10.392
  12.940         81.67	     9.899
  12.960         76.67	     9.592
  12.980         92.50	    10.536
  13.000         90.00	    10.392
  13.020         99.17	    10.909
  13.040         86.67	    10.198
  13.060         88.33	    10.296
  13.080         91.67	    10.488
  13.100         90.00	    10.392
  13.120         90.83	    10.440
  13.140         72.50	     9.327
  13.160         87.50	    10.247
  13.180         90.00	    10.392
  13.200         85.83	    10.149
  13.220         90.83	    10.440
  13.240        100.83	    11.000
  13.260         85.83	    10.149
  13.280         96.67	    10.770
  13.300         85.83	    10.149
  13.320         81.67	     9.899
  13.340         97.50	    10.817
  13.360         89.17	    10.344
  13.380         76.67	     9.592
  13.400         92.50	    10.536
  13.420         96.67	    10.770
  13.440         83.33	    10.000
  13.460         86.67	    10.198
  13.480         96.67	    10.770
  13.500         80.83	     9.849
  13.520         75.00	     9.487
  13.540         92.50	    10.536
  13.560         96.67	    10.770
  13.580        120.00	    12.000
  13.600         84.17	    10.050
  13.620         90.83	    10.440
  13.640        105.00	    11.225
  13.660         95.00	    10.677
  13.680         79.17	     9.747
  13.700         95.00	    10.677
  13.720         93.33	    10.583
  13.740         93.33	    10.583
  13.760         99.17	    10.909
  13.780        112.50	    11.619
  13.800        123.33	    12.166
  13.820        102.50	    11.091
  13.840        100.00	    10.954
  13.860         90.83	    10.440
  13.880        104.17	    11.180
  13.900         80.83	     9.849
  13.920         73.33	     9.381
  13.940         89.17	    10.344
  13.960         77.50	     9.644
  13.980         82.50	     9.950
  14.000        104.17	    11.180
  14.020         91.67	    10.488
  14.040         80.83	     9.849
  14.060         71.67	     9.274
  14.080         82.50	     9.950
  14.100         82.50	     9.950
  14.120         70.00	     9.165
  14.140         70.00	     9.165
  14.160         72.50	     9.327
  14.180         75.00	     9.487
  14.200         95.00	    10.677
  14.220         78.33	     9.695
  14.240         84.17	    10.050
  14.260         85.00	    10.100
  14.280         76.67	     9.592
  14.300         70.83	     9.220
  14.320         65.83	     8.888
  14.340         81.67	     9.899
  14.360         74.17	     9.434
  14.380         67.50	     9.000
  14.400         89.17	    10.344
