
Filename:
	C:\Program Files\Thermo Electron\WinXRD\Datafiles\F_HERMAN\GEO\G47_RT.raw

File Created:
	February 19, 2020 - 08:49 PM

Specimen Id:
	G47_RT

Specimen Name:
	

Specimen Description:
	

Comment:
Scan Type: 2Theta Scan
Start Angle: 3 deg.
Stop Angle: 65 deg.
Num Points: 3101
Step Size: 0.02 deg.
Scan Rate: 1.000000
Scan Mode: Continuous
Wavelength: 1.540562
\Kalpha1: 1.540562	\Kalpha2: 1.544390	\Kbeta: 1.392218

Optics:
		Detector:
			 Type: Fixed Slits
		Tube: 
			 Type: Fixed Slits


Datas:
 Pos [deg]       Rate [CPS]      ESD [-]

Range 1 ---> Iteration 1
   3.000        472.50	    23.812
   3.020        461.67	    23.537
   3.040        437.50	    22.913
   3.060        448.33	    23.195
   3.080        454.17	    23.345
   3.100        443.33	    23.065
   3.120        446.67	    23.152
   3.140        465.00	    23.622
   3.160        434.17	    22.825
   3.180        428.33	    22.672
   3.200        409.17	    22.159
   3.220        431.67	    22.760
   3.240        422.50	    22.517
   3.260        439.17	    22.956
   3.280        402.50	    21.977
   3.300        391.67	    21.679
   3.320        415.00	    22.316
   3.340        415.83	    22.338
   3.360        371.67	    21.119
   3.380        420.83	    22.472
   3.400        362.50	    20.857
   3.420        387.50	    21.564
   3.440        398.33	    21.863
   3.460        401.67	    21.954
   3.480        417.50	    22.383
   3.500        394.17	    21.749
   3.520        372.50	    21.142
   3.540        402.50	    21.977
   3.560        369.17	    21.048
   3.580        375.83	    21.237
   3.600        387.50	    21.564
   3.620        340.00	    20.199
   3.640        333.33	    20.000
   3.660        361.67	    20.833
   3.680        355.00	    20.640
   3.700        360.00	    20.785
   3.720        356.67	    20.688
   3.740        356.67	    20.688
   3.760        339.17	    20.174
   3.780        360.83	    20.809
   3.800        350.83	    20.518
   3.820        337.50	    20.125
   3.840        362.50	    20.857
   3.860        346.67	    20.396
   3.880        335.00	    20.050
   3.900        311.67	    19.339
   3.920        331.67	    19.950
   3.940        326.67	    19.799
   3.960        338.33	    20.149
   3.980        336.67	    20.100
   4.000        329.17	    19.875
   4.020        315.83	    19.468
   4.040        308.33	    19.235
   4.060        333.33	    20.000
   4.080        291.67	    18.708
   4.100        313.33	    19.391
   4.120        303.33	    19.079
   4.140        306.67	    19.183
   4.160        313.33	    19.391
   4.180        291.67	    18.708
   4.200        313.33	    19.391
   4.220        305.00	    19.131
   4.240        326.67	    19.799
   4.260        330.00	    19.900
   4.280        325.83	    19.774
   4.300        295.00	    18.815
   4.320        291.67	    18.708
   4.340        283.33	    18.439
   4.360        283.33	    18.439
   4.380        268.33	    17.944
   4.400        292.50	    18.735
   4.420        298.33	    18.921
   4.440        296.67	    18.868
   4.460        310.00	    19.287
   4.480        301.67	    19.026
   4.500        282.50	    18.412
   4.520        277.50	    18.248
   4.540        250.83	    17.349
   4.560        276.67	    18.221
   4.580        277.50	    18.248
   4.600        260.00	    17.664
   4.620        265.83	    17.861
   4.640        257.50	    17.578
   4.660        266.67	    17.889
   4.680        259.17	    17.635
   4.700        285.00	    18.493
   4.720        272.50	    18.083
   4.740        240.00	    16.971
   4.760        241.67	    17.029
   4.780        270.00	    18.000
   4.800        252.50	    17.407
   4.820        247.50	    17.234
   4.840        255.83	    17.521
   4.860        270.83	    18.028
   4.880        279.17	    18.303
   4.900        275.00	    18.166
   4.920        252.50	    17.407
   4.940        275.00	    18.166
   4.960        255.83	    17.521
   4.980        250.00	    17.321
   5.000        254.17	    17.464
   5.020        226.67	    16.492
   5.040        222.50	    16.340
   5.060        254.17	    17.464
   5.080        230.83	    16.643
   5.100        253.33	    17.436
   5.120        229.17	    16.583
   5.140        230.83	    16.643
   5.160        250.00	    17.321
   5.180        240.83	    17.000
   5.200        234.17	    16.763
   5.220        233.33	    16.733
   5.240        225.00	    16.432
   5.260        250.83	    17.349
   5.280        260.83	    17.692
   5.300        252.50	    17.407
   5.320        260.00	    17.664
   5.340        238.33	    16.912
   5.360        266.67	    17.889
   5.380        252.50	    17.407
   5.400        235.83	    16.823
   5.420        237.50	    16.882
   5.440        230.00	    16.613
   5.460        225.83	    16.462
   5.480        203.33	    15.620
   5.500        236.67	    16.852
   5.520        232.50	    16.703
   5.540        211.67	    15.937
   5.560        204.17	    15.652
   5.580        234.17	    16.763
   5.600        234.17	    16.763
   5.620        235.00	    16.793
   5.640        219.17	    16.217
   5.660        239.17	    16.941
   5.680        217.50	    16.155
   5.700        222.50	    16.340
   5.720        222.50	    16.340
   5.740        234.17	    16.763
   5.760        242.50	    17.059
   5.780        235.00	    16.793
   5.800        243.33	    17.088
   5.820        232.50	    16.703
   5.840        213.33	    16.000
   5.860        260.83	    17.692
   5.880        260.00	    17.664
   5.900        239.17	    16.941
   5.920        255.83	    17.521
   5.940        234.17	    16.763
   5.960        257.50	    17.578
   5.980        252.50	    17.407
   6.000        262.50	    17.748
   6.020        237.50	    16.882
   6.040        235.83	    16.823
   6.060        285.00	    18.493
   6.080        257.50	    17.578
   6.100        270.00	    18.000
   6.120        306.67	    19.183
   6.140        304.17	    19.105
   6.160        270.83	    18.028
   6.180        225.00	    16.432
   6.200        198.33	    15.427
   6.220        203.33	    15.620
   6.240        222.50	    16.340
   6.260        223.33	    16.371
   6.280        182.50	    14.799
   6.300        203.33	    15.620
   6.320        206.67	    15.748
   6.340        180.00	    14.697
   6.360        193.33	    15.232
   6.380        195.83	    15.330
   6.400        179.17	    14.663
   6.420        192.50	    15.199
   6.440        219.17	    16.217
   6.460        170.83	    14.318
   6.480        190.83	    15.133
   6.500        211.67	    15.937
   6.520        190.00	    15.100
   6.540        209.17	    15.843
   6.560        200.00	    15.492
   6.580        180.00	    14.697
   6.600        191.67	    15.166
   6.620        170.83	    14.318
   6.640        187.50	    15.000
   6.660        186.67	    14.967
   6.680        176.67	    14.560
   6.700        183.33	    14.832
   6.720        200.83	    15.524
   6.740        182.50	    14.799
   6.760        183.33	    14.832
   6.780        178.33	    14.629
   6.800        182.50	    14.799
   6.820        170.00	    14.283
   6.840        181.67	    14.765
   6.860        190.83	    15.133
   6.880        193.33	    15.232
   6.900        190.00	    15.100
   6.920        158.33	    13.784
   6.940        195.00	    15.297
   6.960        183.33	    14.832
   6.980        175.83	    14.526
   7.000        168.33	    14.213
   7.020        172.50	    14.387
   7.040        170.00	    14.283
   7.060        170.00	    14.283
   7.080        175.00	    14.491
   7.100        165.83	    14.107
   7.120        186.67	    14.967
   7.140        190.00	    15.100
   7.160        155.00	    13.638
   7.180        191.67	    15.166
   7.200        161.67	    13.928
   7.220        182.50	    14.799
   7.240        177.50	    14.595
   7.260        172.50	    14.387
   7.280        155.00	    13.638
   7.300        164.17	    14.036
   7.320        172.50	    14.387
   7.340        148.33	    13.342
   7.360        179.17	    14.663
   7.380        170.83	    14.318
   7.400        161.67	    13.928
   7.420        167.50	    14.177
   7.440        169.17	    14.248
   7.460        182.50	    14.799
   7.480        160.83	    13.892
   7.500        145.83	    13.229
   7.520        158.33	    13.784
   7.540        149.17	    13.379
   7.560        164.17	    14.036
   7.580        187.50	    15.000
   7.600        148.33	    13.342
   7.620        159.17	    13.820
   7.640        159.17	    13.820
   7.660        143.33	    13.115
   7.680        155.83	    13.675
   7.700        149.17	    13.379
   7.720        160.83	    13.892
   7.740        152.50	    13.528
   7.760        151.67	    13.491
   7.780        158.33	    13.784
   7.800        150.83	    13.454
   7.820        144.17	    13.153
   7.840        145.83	    13.229
   7.860        150.00	    13.416
   7.880        166.67	    14.142
   7.900        145.83	    13.229
   7.920        150.83	    13.454
   7.940        148.33	    13.342
   7.960        151.67	    13.491
   7.980        143.33	    13.115
   8.000        150.00	    13.416
   8.020        156.67	    13.711
   8.040        150.83	    13.454
   8.060        147.50	    13.304
   8.080        128.33	    12.410
   8.100        145.00	    13.191
   8.120        155.83	    13.675
   8.140        145.83	    13.229
   8.160        145.83	    13.229
   8.180        164.17	    14.036
   8.200        164.17	    14.036
   8.220        162.50	    13.964
   8.240        155.00	    13.638
   8.260        182.50	    14.799
   8.280        138.33	    12.884
   8.300        134.17	    12.689
   8.320        147.50	    13.304
   8.340        150.83	    13.454
   8.360        144.17	    13.153
   8.380        159.17	    13.820
   8.400        157.50	    13.748
   8.420        140.00	    12.961
   8.440        172.50	    14.387
   8.460        162.50	    13.964
   8.480        150.83	    13.454
   8.500        173.33	    14.422
   8.520        165.00	    14.071
   8.540        175.83	    14.526
   8.560        176.67	    14.560
   8.580        200.83	    15.524
   8.600        207.50	    15.780
   8.620        233.33	    16.733
   8.640        210.83	    15.906
   8.660        230.83	    16.643
   8.680        254.17	    17.464
   8.700        287.50	    18.574
   8.720        358.33	    20.736
   8.740        456.67	    23.409
   8.760        590.83	    26.627
   8.780        606.67	    26.981
   8.800        517.50	    24.920
   8.820        321.67	    19.647
   8.840        197.50	    15.395
   8.860        161.67	    13.928
   8.880        159.17	    13.820
   8.900        132.50	    12.610
   8.920        138.33	    12.884
   8.940        141.67	    13.038
   8.960        130.83	    12.530
   8.980        148.33	    13.342
   9.000        155.83	    13.675
   9.020        145.00	    13.191
   9.040        155.00	    13.638
   9.060        155.83	    13.675
   9.080        154.17	    13.601
   9.100        129.17	    12.450
   9.120        145.83	    13.229
   9.140        141.67	    13.038
   9.160        132.50	    12.610
   9.180        138.33	    12.884
   9.200        120.83	    12.042
   9.220        117.50	    11.874
   9.240        129.17	    12.450
   9.260        120.00	    12.000
   9.280        160.00	    13.856
   9.300        144.17	    13.153
   9.320        146.67	    13.266
   9.340        132.50	    12.610
   9.360        151.67	    13.491
   9.380        146.67	    13.266
   9.400        134.17	    12.689
   9.420        113.33	    11.662
   9.440        122.50	    12.124
   9.460        119.17	    11.958
   9.480        109.17	    11.446
   9.500        130.83	    12.530
   9.520        114.17	    11.705
   9.540        125.83	    12.288
   9.560        130.00	    12.490
   9.580        113.33	    11.662
   9.600        112.50	    11.619
   9.620        111.67	    11.576
   9.640        131.67	    12.570
   9.660         99.17	    10.909
   9.680        117.50	    11.874
   9.700        115.00	    11.747
   9.720        111.67	    11.576
   9.740        120.00	    12.000
   9.760        125.00	    12.247
   9.780        111.67	    11.576
   9.800        107.50	    11.358
   9.820        111.67	    11.576
   9.840        100.00	    10.954
   9.860        120.83	    12.042
   9.880        116.67	    11.832
   9.900        100.00	    10.954
   9.920        115.00	    11.747
   9.940        112.50	    11.619
   9.960        127.50	    12.369
   9.980        107.50	    11.358
  10.000        104.17	    11.180
  10.020        110.83	    11.533
  10.040        112.50	    11.619
  10.060        110.83	    11.533
  10.080         99.17	    10.909
  10.100        105.00	    11.225
  10.120         95.00	    10.677
  10.140        115.00	    11.747
  10.160        106.67	    11.314
  10.180        109.17	    11.446
  10.200        103.33	    11.136
  10.220        115.83	    11.790
  10.240         96.67	    10.770
  10.260        119.17	    11.958
  10.280        122.50	    12.124
  10.300        120.83	    12.042
  10.320        102.50	    11.091
  10.340        124.17	    12.207
  10.360        130.83	    12.530
  10.380        115.00	    11.747
  10.400        135.00	    12.728
  10.420        150.00	    13.416
  10.440        120.83	    12.042
  10.460        128.33	    12.410
  10.480        102.50	    11.091
  10.500        120.00	    12.000
  10.520        114.17	    11.705
  10.540        110.83	    11.533
  10.560         97.50	    10.817
  10.580        114.17	    11.705
  10.600         83.33	    10.000
  10.620         85.00	    10.100
  10.640         91.67	    10.488
  10.660        108.33	    11.402
  10.680        104.17	    11.180
  10.700        113.33	    11.662
  10.720         90.83	    10.440
  10.740         96.67	    10.770
  10.760        102.50	    11.091
  10.780         90.00	    10.392
  10.800        111.67	    11.576
  10.820         85.00	    10.100
  10.840        122.50	    12.124
  10.860         91.67	    10.488
  10.880        109.17	    11.446
  10.900        109.17	    11.446
  10.920         99.17	    10.909
  10.940        121.67	    12.083
  10.960        102.50	    11.091
  10.980         90.00	    10.392
  11.000        100.83	    11.000
  11.020        100.83	    11.000
  11.040         92.50	    10.536
  11.060         90.83	    10.440
  11.080        130.00	    12.490
  11.100        100.00	    10.954
  11.120        103.33	    11.136
  11.140         88.33	    10.296
  11.160        104.17	    11.180
  11.180        105.00	    11.225
  11.200         93.33	    10.583
  11.220         87.50	    10.247
  11.240        105.83	    11.269
  11.260        101.67	    11.045
  11.280         86.67	    10.198
  11.300        111.67	    11.576
  11.320         98.33	    10.863
  11.340        103.33	    11.136
  11.360         99.17	    10.909
  11.380        101.67	    11.045
  11.400         90.83	    10.440
  11.420        104.17	    11.180
  11.440        110.83	    11.533
  11.460        105.00	    11.225
  11.480         80.83	     9.849
  11.500         80.83	     9.849
  11.520         96.67	    10.770
  11.540        101.67	    11.045
  11.560         92.50	    10.536
  11.580         99.17	    10.909
  11.600         86.67	    10.198
  11.620         90.83	    10.440
  11.640         99.17	    10.909
  11.660         87.50	    10.247
  11.680        109.17	    11.446
  11.700        103.33	    11.136
  11.720         80.00	     9.798
  11.740         76.67	     9.592
  11.760         93.33	    10.583
  11.780        108.33	    11.402
  11.800         80.83	     9.849
  11.820         92.50	    10.536
  11.840        103.33	    11.136
  11.860        114.17	    11.705
  11.880        100.00	    10.954
  11.900        100.00	    10.954
  11.920        102.50	    11.091
  11.940        108.33	    11.402
  11.960        117.50	    11.874
  11.980        138.33	    12.884
  12.000        155.83	    13.675
  12.020        234.17	    16.763
  12.040        315.83	    19.468
  12.060        397.50	    21.840
  12.080        425.00	    22.583
  12.100        396.67	    21.817
  12.120        305.83	    19.157
  12.140        218.33	    16.186
  12.160        161.67	    13.928
  12.180        181.67	    14.765
  12.200        191.67	    15.166
  12.220        177.50	    14.595
  12.240        202.50	    15.588
  12.260        181.67	    14.765
  12.280        193.33	    15.232
  12.300        183.33	    14.832
  12.320        209.17	    15.843
  12.340        204.17	    15.652
  12.360        267.50	    17.916
  12.380        297.50	    18.894
  12.400        308.33	    19.235
  12.420        281.67	    18.385
  12.440        190.00	    15.100
  12.460        170.83	    14.318
  12.480        130.83	    12.530
  12.500        144.17	    13.153
  12.520        103.33	    11.136
  12.540         90.83	    10.440
  12.560        116.67	    11.832
  12.580         88.33	    10.296
  12.600         90.83	    10.440
  12.620        106.67	    11.314
  12.640         95.00	    10.677
  12.660         80.00	     9.798
  12.680         76.67	     9.592
  12.700         85.83	    10.149
  12.720         85.83	    10.149
  12.740         92.50	    10.536
  12.760         76.67	     9.592
  12.780         80.83	     9.849
  12.800         80.83	     9.849
  12.820         80.83	     9.849
  12.840         94.17	    10.630
  12.860         81.67	     9.899
  12.880         91.67	    10.488
  12.900         97.50	    10.817
  12.920         78.33	     9.695
  12.940         85.00	    10.100
  12.960         80.83	     9.849
  12.980         80.83	     9.849
  13.000         88.33	    10.296
  13.020         82.50	     9.950
  13.040         67.50	     9.000
  13.060        105.83	    11.269
  13.080         82.50	     9.950
  13.100         95.00	    10.677
  13.120         95.00	    10.677
  13.140         82.50	     9.950
  13.160         80.00	     9.798
  13.180         80.83	     9.849
  13.200         85.83	    10.149
  13.220         85.00	    10.100
  13.240         81.67	     9.899
  13.260         82.50	     9.950
  13.280         74.17	     9.434
  13.300         87.50	    10.247
  13.320         80.83	     9.849
  13.340         92.50	    10.536
  13.360         78.33	     9.695
  13.380         77.50	     9.644
  13.400         68.33	     9.055
  13.420         66.67	     8.944
  13.440         70.83	     9.220
  13.460         77.50	     9.644
  13.480         82.50	     9.950
  13.500         79.17	     9.747
  13.520         96.67	    10.770
  13.540         91.67	    10.488
  13.560         90.00	    10.392
  13.580         85.83	    10.149
  13.600         84.17	    10.050
  13.620         92.50	    10.536
  13.640         97.50	    10.817
  13.660         81.67	     9.899
  13.680        114.17	    11.705
  13.700        129.17	    12.450
  13.720        135.00	    12.728
  13.740        160.00	    13.856
  13.760        173.33	    14.422
  13.780        164.17	    14.036
  13.800        114.17	    11.705
  13.820        116.67	    11.832
  13.840         95.83	    10.724
  13.860        105.00	    11.225
  13.880         88.33	    10.296
  13.900         83.33	    10.000
  13.920         88.33	    10.296
  13.940         80.83	     9.849
  13.960         71.67	     9.274
  13.980         84.17	    10.050
  14.000         60.83	     8.544
  14.020         78.33	     9.695
  14.040         74.17	     9.434
  14.060         81.67	     9.899
  14.080         85.83	    10.149
  14.100         64.17	     8.775
  14.120         81.67	     9.899
  14.140         73.33	     9.381
  14.160         79.17	     9.747
  14.180         60.83	     8.544
  14.200         75.83	     9.539
  14.220         72.50	     9.327
  14.240         90.83	    10.440
  14.260         81.67	     9.899
  14.280         69.17	     9.110
  14.300         82.50	     9.950
  14.320         65.83	     8.888
  14.340         79.17	     9.747
  14.360         61.67	     8.602
  14.380         71.67	     9.274
  14.400         73.33	     9.381
