
Filename:
	C:\Program Files\Thermo Electron\WinXRD\Datafiles\F_HERMAN\FIEN\G48A_FT.raw

File Created:
	October 02, 2019 - 06:10 PM

Specimen Id:
	G48A FT

Specimen Name:
	

Specimen Description:
	

Comment:
Scan Type: 2Theta Scan
Start Angle: 1 deg.
Stop Angle: 65 deg.
Num Points: 3201
Step Size: 0.02 deg.
Scan Rate: 1.000000
Scan Mode: Continuous
Wavelength: 1.540562
\Kalpha1: 1.540562	\Kalpha2: 1.544390	\Kbeta: 1.392218

Optics:
		Detector:
			 Type: Fixed Slits
		Tube: 
			 Type: Fixed Slits


Datas:
 Pos [deg]       Rate [CPS]      ESD [-]

Range 1 ---> Iteration 1
   1.000         73.33	     9.381
   1.020         67.50	     9.000
   1.040         78.33	     9.695
   1.060         75.83	     9.539
   1.080         97.50	    10.817
   1.100        105.00	    11.225
   1.120        109.17	    11.446
   1.140         88.33	    10.296
   1.160         95.00	    10.677
   1.180         79.17	     9.747
   1.200         90.83	    10.440
   1.220         97.50	    10.817
   1.240         90.83	    10.440
   1.260         85.83	    10.149
   1.280         90.00	    10.392
   1.300         93.33	    10.583
   1.320        105.00	    11.225
   1.340        112.50	    11.619
   1.360         80.83	     9.849
   1.380        101.67	    11.045
   1.400        107.50	    11.358
   1.420         84.17	    10.050
   1.440        115.83	    11.790
   1.460         97.50	    10.817
   1.480        112.50	    11.619
   1.500        109.17	    11.446
   1.520        115.00	    11.747
   1.540        105.83	    11.269
   1.560        108.33	    11.402
   1.580        121.67	    12.083
   1.600        107.50	    11.358
   1.620        125.00	    12.247
   1.640        118.33	    11.916
   1.660        116.67	    11.832
   1.680        113.33	    11.662
   1.700        137.50	    12.845
   1.720        118.33	    11.916
   1.740        114.17	    11.705
   1.760        131.67	    12.570
   1.780        126.67	    12.329
   1.800        118.33	    11.916
   1.820        130.83	    12.530
   1.840        126.67	    12.329
   1.860        139.17	    12.923
   1.880        126.67	    12.329
   1.900        126.67	    12.329
   1.920        147.50	    13.304
   1.940        147.50	    13.304
   1.960        160.00	    13.856
   1.980        130.83	    12.530
   2.000        138.33	    12.884
   2.020        147.50	    13.304
   2.040        165.00	    14.071
   2.060        140.83	    13.000
   2.080        166.67	    14.142
   2.100        168.33	    14.213
   2.120        173.33	    14.422
   2.140        163.33	    14.000
   2.160        185.00	    14.900
   2.180        188.33	    15.033
   2.200        189.17	    15.067
   2.220        178.33	    14.629
   2.240        172.50	    14.387
   2.260        194.17	    15.264
   2.280        182.50	    14.799
   2.300        195.00	    15.297
   2.320        200.83	    15.524
   2.340        193.33	    15.232
   2.360        207.50	    15.780
   2.380        237.50	    16.882
   2.400        232.50	    16.703
   2.420        277.50	    18.248
   2.440        262.50	    17.748
   2.460        280.00	    18.330
   2.480        272.50	    18.083
   2.500        285.00	    18.493
   2.520        277.50	    18.248
   2.540        299.17	    18.947
   2.560        304.17	    19.105
   2.580        334.17	    20.025
   2.600        362.50	    20.857
   2.620        394.17	    21.749
   2.640        387.50	    21.564
   2.660        435.00	    22.847
   2.680        487.50	    24.187
   2.700        496.67	    24.413
   2.720        550.00	    25.690
   2.740        590.83	    26.627
   2.760        586.67	    26.533
   2.780        730.00	    29.597
   2.800        812.50	    31.225
   2.820        882.50	    32.542
   2.840        960.83	    33.956
   2.860       1203.33	    38.000
   2.880       1384.17	    40.755
   2.900       1695.00	    45.100
   2.920       2410.00	    53.777
   2.940       4700.83	    75.107
   2.960       7175.83	    92.795
   2.980       4929.17	    76.909
   3.000          0.00	     0.000
   3.020          0.00	     0.000
   3.040          0.00	     0.000
   3.060          0.00	     0.000
   3.080          0.00	     0.000
   3.100          0.00	     0.000
   3.120        923.33	    33.287
   3.140          0.00	     0.000
   3.160          0.00	     0.000
   3.180          0.83	     1.000
   3.200          0.00	     0.000
   3.220          0.00	     0.000
   3.240          0.00	     0.000
   3.260          0.00	     0.000
   3.280          0.00	     0.000
   3.300          0.00	     0.000
   3.320          0.00	     0.000
   3.340          0.00	     0.000
   3.360          0.00	     0.000
   3.380          0.00	     0.000
   3.400          0.00	     0.000
   3.420          0.00	     0.000
   3.440          0.00	     0.000
   3.460          0.00	     0.000
   3.480          0.00	     0.000
   3.500          0.00	     0.000
   3.520          0.00	     0.000
   3.540          0.00	     0.000
   3.560          0.00	     0.000
   3.580          0.00	     0.000
   3.600          0.00	     0.000
   3.620          0.00	     0.000
   3.640          0.00	     0.000
   3.660          0.00	     0.000
   3.680          0.00	     0.000
   3.700          0.00	     0.000
   3.720          0.00	     0.000
   3.740          0.83	     1.000
   3.760          0.00	     0.000
   3.780         15.00	     4.243
   3.800          0.00	     0.000
   3.820          0.00	     0.000
   3.840          0.00	     0.000
   3.860          0.00	     0.000
   3.880          0.00	     0.000
   3.900          5.83	     2.646
   3.920        619.17	    27.258
   3.940          0.00	     0.000
   3.960          0.00	     0.000
   3.980          0.00	     0.000
   4.000          0.00	     0.000
   4.020          0.00	     0.000
   4.040          0.00	     0.000
   4.060          0.00	     0.000
   4.080          0.00	     0.000
   4.100          0.83	     1.000
   4.120          0.00	     0.000
   4.140        740.00	    29.799
   4.160        236.67	    16.852
   4.180        169.17	    14.248
   4.200        401.67	    21.954
   4.220        235.00	    16.793
   4.240        427.50	    22.650
   4.260        231.67	    16.673
   4.280        300.00	    18.974
   4.300        311.67	    19.339
   4.320        319.17	    19.570
   4.340        324.17	    19.723
   4.360        288.33	    18.601
   4.380        420.83	    22.472
   4.400        541.67	    25.495
   4.420        732.50	    29.648
   4.440       1025.00	    35.071
   4.460       1435.00	    41.497
   4.480       2037.50	    49.447
   4.500       2482.50	    54.580
   4.520       2638.33	    56.267
   4.540       2616.67	    56.036
   4.560       2509.17	    54.873
   4.580       2474.17	    54.489
   4.600       2338.33	    52.972
   4.620       2490.00	    54.663
   4.640       2341.67	    53.009
   4.660       2264.17	    52.125
   4.680       2325.00	    52.820
   4.700       2184.17	    51.196
   4.720       2165.83	    50.980
   4.740       2107.50	    50.289
   4.760       2055.83	    49.669
   4.780       1995.83	    48.939
   4.800       1845.00	    47.053
   4.820       1848.33	    47.096
   4.840       1550.00	    43.128
   4.860       1424.17	    41.340
   4.880       1258.33	    38.859
   4.900       1007.50	    34.771
   4.920        939.17	    33.571
   4.940        830.83	    31.575
   4.960        777.50	    30.545
   4.980        754.17	    30.083
   5.000        727.50	    29.547
   5.020        667.50	    28.302
   5.040        702.50	    29.034
   5.060        683.33	    28.636
   5.080        706.67	    29.120
   5.100        669.17	    28.337
   5.120        652.50	    27.982
   5.140        662.50	    28.196
   5.160        631.67	    27.532
   5.180        617.50	    27.221
   5.200        650.83	    27.946
   5.220        602.50	    26.889
   5.240        615.83	    27.185
   5.260        615.83	    27.185
   5.280        600.00	    26.833
   5.300        589.17	    26.589
   5.320        586.67	    26.533
   5.340        589.17	    26.589
   5.360        568.33	    26.115
   5.380        544.17	    25.554
   5.400        534.17	    25.318
   5.420        558.33	    25.884
   5.440        530.00	    25.219
   5.460        515.83	    24.880
   5.480        516.67	    24.900
   5.500        511.67	    24.779
   5.520        508.33	    24.698
   5.540        491.67	    24.290
   5.560        510.00	    24.739
   5.580        519.17	    24.960
   5.600        520.00	    24.980
   5.620        479.17	    23.979
   5.640        460.83	    23.516
   5.660        504.17	    24.597
   5.680        439.17	    22.956
   5.700        445.83	    23.130
   5.720        465.83	    23.643
   5.740        435.83	    22.869
   5.760        452.50	    23.302
   5.780        465.00	    23.622
   5.800        455.83	    23.388
   5.820        460.83	    23.516
   5.840        424.17	    22.561
   5.860        465.00	    23.622
   5.880        405.00	    22.045
   5.900        420.00	    22.450
   5.920        425.00	    22.583
   5.940        446.67	    23.152
   5.960        418.33	    22.405
   5.980        435.83	    22.869
   6.000        432.50	    22.782
   6.020        422.50	    22.517
   6.040        410.00	    22.181
   6.060        405.00	    22.045
   6.080        402.50	    21.977
   6.100        388.33	    21.587
   6.120        395.00	    21.772
   6.140        355.83	    20.664
   6.160        405.83	    22.068
   6.180        373.33	    21.166
   6.200        380.83	    21.378
   6.220        380.00	    21.354
   6.240        340.00	    20.199
   6.260        378.33	    21.307
   6.280        384.17	    21.471
   6.300        429.17	    22.694
   6.320        373.33	    21.166
   6.340        372.50	    21.142
   6.360        335.00	    20.050
   6.380        329.17	    19.875
   6.400        326.67	    19.799
   6.420        340.00	    20.199
   6.440        355.00	    20.640
   6.460        342.50	    20.273
   6.480        334.17	    20.025
   6.500        355.00	    20.640
   6.520        320.00	    19.596
   6.540        405.83	    22.068
   6.560        332.50	    19.975
   6.580        349.17	    20.469
   6.600        330.00	    19.900
   6.620        322.50	    19.672
   6.640        322.50	    19.672
   6.660        310.83	    19.313
   6.680        309.17	    19.261
   6.700        332.50	    19.975
   6.720        340.00	    20.199
   6.740        345.83	    20.372
   6.760        310.00	    19.287
   6.780        301.67	    19.026
   6.800        320.83	    19.621
   6.820        311.67	    19.339
   6.840        302.50	    19.053
   6.860        305.00	    19.131
   6.880        304.17	    19.105
   6.900        309.17	    19.261
   6.920        287.50	    18.574
   6.940        292.50	    18.735
   6.960        268.33	    17.944
   6.980        285.00	    18.493
   7.000        312.50	    19.365
   7.020        297.50	    18.894
   7.040        300.00	    18.974
   7.060        302.50	    19.053
   7.080        261.67	    17.720
   7.100        275.00	    18.166
   7.120        298.33	    18.921
   7.140        278.33	    18.276
   7.160        298.33	    18.921
   7.180        284.17	    18.466
   7.200        297.50	    18.894
   7.220        290.83	    18.682
   7.240        264.17	    17.804
   7.260        262.50	    17.748
   7.280        256.67	    17.550
   7.300        261.67	    17.720
   7.320        250.00	    17.321
   7.340        272.50	    18.083
   7.360        295.83	    18.841
   7.380        293.33	    18.762
   7.400        262.50	    17.748
   7.420        253.33	    17.436
   7.440        267.50	    17.916
   7.460        254.17	    17.464
   7.480        253.33	    17.436
   7.500        251.67	    17.378
   7.520        250.00	    17.321
   7.540        260.83	    17.692
   7.560        237.50	    16.882
   7.580        290.83	    18.682
   7.600        240.83	    17.000
   7.620        226.67	    16.492
   7.640        250.00	    17.321
   7.660        234.17	    16.763
   7.680        256.67	    17.550
   7.700        225.00	    16.432
   7.720        233.33	    16.733
   7.740        241.67	    17.029
   7.760        238.33	    16.912
   7.780        222.50	    16.340
   7.800        215.83	    16.093
   7.820        220.00	    16.248
   7.840        221.67	    16.310
   7.860        217.50	    16.155
   7.880        219.17	    16.217
   7.900        232.50	    16.703
   7.920        251.67	    17.378
   7.940        218.33	    16.186
   7.960        242.50	    17.059
   7.980        229.17	    16.583
   8.000        208.33	    15.811
   8.020        200.83	    15.524
   8.040        233.33	    16.733
   8.060        240.00	    16.971
   8.080        230.83	    16.643
   8.100        232.50	    16.703
   8.120        239.17	    16.941
   8.140        228.33	    16.553
   8.160        239.17	    16.941
   8.180        215.83	    16.093
   8.200        239.17	    16.941
   8.220        214.17	    16.031
   8.240        242.50	    17.059
   8.260        203.33	    15.620
   8.280        224.17	    16.401
   8.300        206.67	    15.748
   8.320        210.83	    15.906
   8.340        199.17	    15.460
   8.360        190.00	    15.100
   8.380        260.00	    17.664
   8.400        226.67	    16.492
   8.420        197.50	    15.395
   8.440        215.83	    16.093
   8.460        206.67	    15.748
   8.480        222.50	    16.340
   8.500        203.33	    15.620
   8.520        228.33	    16.553
   8.540        190.83	    15.133
   8.560        195.83	    15.330
   8.580        193.33	    15.232
   8.600        211.67	    15.937
   8.620        203.33	    15.620
   8.640        186.67	    14.967
   8.660        208.33	    15.811
   8.680        178.33	    14.629
   8.700        210.83	    15.906
   8.720        187.50	    15.000
   8.740        194.17	    15.264
   8.760        180.83	    14.731
   8.780        210.83	    15.906
   8.800        203.33	    15.620
   8.820        211.67	    15.937
   8.840        200.00	    15.492
   8.860        210.83	    15.906
   8.880        216.67	    16.125
   8.900        209.17	    15.843
   8.920        179.17	    14.663
   8.940        203.33	    15.620
   8.960        208.33	    15.811
   8.980        188.33	    15.033
   9.000        181.67	    14.765
   9.020        195.83	    15.330
   9.040        172.50	    14.387
   9.060        194.17	    15.264
   9.080        175.83	    14.526
   9.100        208.33	    15.811
   9.120        191.67	    15.166
   9.140        215.83	    16.093
   9.160        212.50	    15.969
   9.180        209.17	    15.843
   9.200        220.83	    16.279
   9.220        218.33	    16.186
   9.240        193.33	    15.232
   9.260        190.00	    15.100
   9.280        185.83	    14.933
   9.300        194.17	    15.264
   9.320        217.50	    16.155
   9.340        210.00	    15.875
   9.360        206.67	    15.748
   9.380        199.17	    15.460
   9.400        209.17	    15.843
   9.420        204.17	    15.652
   9.440        205.00	    15.684
   9.460        210.83	    15.906
   9.480        190.83	    15.133
   9.500        197.50	    15.395
   9.520        215.00	    16.062
   9.540        169.17	    14.248
   9.560        169.17	    14.248
   9.580        183.33	    14.832
   9.600        175.83	    14.526
   9.620        174.17	    14.457
   9.640        158.33	    13.784
   9.660        175.00	    14.491
   9.680        173.33	    14.422
   9.700        162.50	    13.964
   9.720        176.67	    14.560
   9.740        170.83	    14.318
   9.760        165.83	    14.107
   9.780        165.83	    14.107
   9.800        159.17	    13.820
   9.820        163.33	    14.000
   9.840        174.17	    14.457
   9.860        167.50	    14.177
   9.880        175.83	    14.526
   9.900        151.67	    13.491
   9.920        188.33	    15.033
   9.940        155.00	    13.638
   9.960        163.33	    14.000
   9.980        189.17	    15.067
  10.000        184.17	    14.866
  10.020        165.00	    14.071
  10.040        156.67	    13.711
  10.060        163.33	    14.000
  10.080        140.00	    12.961
  10.100        140.83	    13.000
  10.120        155.00	    13.638
  10.140        165.83	    14.107
  10.160        151.67	    13.491
  10.180        154.17	    13.601
  10.200        142.50	    13.077
  10.220        148.33	    13.342
  10.240        157.50	    13.748
  10.260        160.83	    13.892
  10.280        160.00	    13.856
  10.300        129.17	    12.450
  10.320        130.83	    12.530
  10.340        165.83	    14.107
  10.360        166.67	    14.142
  10.380        146.67	    13.266
  10.400        145.83	    13.229
  10.420        161.67	    13.928
  10.440        116.67	    11.832
  10.460        154.17	    13.601
  10.480        140.83	    13.000
  10.500        135.00	    12.728
  10.520        130.00	    12.490
  10.540        150.00	    13.416
  10.560        146.67	    13.266
  10.580        145.83	    13.229
  10.600        114.17	    11.705
  10.620        137.50	    12.845
  10.640        118.33	    11.916
  10.660        139.17	    12.923
  10.680        123.33	    12.166
  10.700        147.50	    13.304
  10.720        133.33	    12.649
  10.740        145.00	    13.191
  10.760        146.67	    13.266
  10.780        125.00	    12.247
  10.800        154.17	    13.601
  10.820        127.50	    12.369
  10.840        142.50	    13.077
  10.860        122.50	    12.124
  10.880        154.17	    13.601
  10.900        115.83	    11.790
  10.920        153.33	    13.565
  10.940        130.00	    12.490
  10.960        137.50	    12.845
  10.980        133.33	    12.649
  11.000        131.67	    12.570
  11.020        157.50	    13.748
  11.040        118.33	    11.916
  11.060        129.17	    12.450
  11.080        146.67	    13.266
  11.100        139.17	    12.923
  11.120        145.83	    13.229
  11.140        140.00	    12.961
  11.160        138.33	    12.884
  11.180        145.00	    13.191
  11.200        120.00	    12.000
  11.220        128.33	    12.410
  11.240        131.67	    12.570
  11.260        114.17	    11.705
  11.280        118.33	    11.916
  11.300        118.33	    11.916
  11.320        128.33	    12.410
  11.340        125.83	    12.288
  11.360        125.83	    12.288
  11.380        130.00	    12.490
  11.400        129.17	    12.450
  11.420        124.17	    12.207
  11.440        150.83	    13.454
  11.460        134.17	    12.689
  11.480        119.17	    11.958
  11.500        144.17	    13.153
  11.520        135.83	    12.767
  11.540        132.50	    12.610
  11.560        126.67	    12.329
  11.580        122.50	    12.124
  11.600        108.33	    11.402
  11.620        115.00	    11.747
  11.640        130.83	    12.530
  11.660        139.17	    12.923
  11.680        124.17	    12.207
  11.700        156.67	    13.711
  11.720        135.00	    12.728
  11.740        135.00	    12.728
  11.760        148.33	    13.342
  11.780        158.33	    13.784
  11.800        155.00	    13.638
  11.820        164.17	    14.036
  11.840        161.67	    13.928
  11.860        165.00	    14.071
  11.880        180.00	    14.697
  11.900        180.00	    14.697
  11.920        217.50	    16.155
  11.940        214.17	    16.031
  11.960        226.67	    16.492
  11.980        197.50	    15.395
  12.000        206.67	    15.748
  12.020        226.67	    16.492
  12.040        179.17	    14.663
  12.060        203.33	    15.620
  12.080        216.67	    16.125
  12.100        175.83	    14.526
  12.120        143.33	    13.115
  12.140        141.67	    13.038
  12.160        135.83	    12.767
  12.180        141.67	    13.038
  12.200        129.17	    12.450
  12.220        115.00	    11.747
  12.240        129.17	    12.450
  12.260        100.00	    10.954
  12.280        122.50	    12.124
  12.300        119.17	    11.958
  12.320        101.67	    11.045
  12.340        109.17	    11.446
  12.360        121.67	    12.083
  12.380        123.33	    12.166
  12.400        119.17	    11.958
