
Filename:
	C:\Program Files\Thermo Electron\WinXRD\Datafiles\F_HERMAN\FIEN\G49_RT.raw

File Created:
	January 30, 2020 - 04:30 PM

Specimen Id:
	G49 RT

Specimen Name:
	

Specimen Description:
	

Comment:
Scan Type: 2Theta Scan
Start Angle: 3 deg.
Stop Angle: 65 deg.
Num Points: 3101
Step Size: 0.02 deg.
Scan Rate: 1.000000
Scan Mode: Continuous
Wavelength: 1.540562
\Kalpha1: 1.540562	\Kalpha2: 1.544390	\Kbeta: 1.392218

Optics:
		Detector:
			 Type: Fixed Slits
		Tube: 
			 Type: Fixed Slits


Datas:
 Pos [deg]       Rate [CPS]      ESD [-]

Range 1 ---> Iteration 1
   3.000        428.33	    22.672
   3.020        420.00	    22.450
   3.040        418.33	    22.405
   3.060        459.17	    23.473
   3.080        455.00	    23.367
   3.100        398.33	    21.863
   3.120        427.50	    22.650
   3.140        407.50	    22.113
   3.160        408.33	    22.136
   3.180        418.33	    22.405
   3.200        405.83	    22.068
   3.220        375.00	    21.213
   3.240        381.67	    21.401
   3.260        379.17	    21.331
   3.280        394.17	    21.749
   3.300        377.50	    21.284
   3.320        367.50	    21.000
   3.340        379.17	    21.331
   3.360        411.67	    22.226
   3.380        380.83	    21.378
   3.400        364.17	    20.905
   3.420        367.50	    21.000
   3.440        365.00	    20.928
   3.460        363.33	    20.881
   3.480        346.67	    20.396
   3.500        365.83	    20.952
   3.520        349.17	    20.469
   3.540        366.67	    20.976
   3.560        374.17	    21.190
   3.580        365.83	    20.952
   3.600        360.00	    20.785
   3.620        332.50	    19.975
   3.640        334.17	    20.025
   3.660        320.83	    19.621
   3.680        302.50	    19.053
   3.700        342.50	    20.273
   3.720        335.00	    20.050
   3.740        343.33	    20.298
   3.760        336.67	    20.100
   3.780        330.83	    19.925
   3.800        320.00	    19.596
   3.820        311.67	    19.339
   3.840        300.83	    19.000
   3.860        344.17	    20.322
   3.880        327.50	    19.824
   3.900        311.67	    19.339
   3.920        315.00	    19.442
   3.940        319.17	    19.570
   3.960        300.00	    18.974
   3.980        302.50	    19.053
   4.000        305.83	    19.157
   4.020        317.50	    19.519
   4.040        308.33	    19.235
   4.060        283.33	    18.439
   4.080        300.83	    19.000
   4.100        297.50	    18.894
   4.120        273.33	    18.111
   4.140        297.50	    18.894
   4.160        307.50	    19.209
   4.180        290.83	    18.682
   4.200        277.50	    18.248
   4.220        286.67	    18.547
   4.240        264.17	    17.804
   4.260        267.50	    17.916
   4.280        274.17	    18.138
   4.300        293.33	    18.762
   4.320        315.83	    19.468
   4.340        273.33	    18.111
   4.360        265.00	    17.833
   4.380        279.17	    18.303
   4.400        258.33	    17.607
   4.420        270.00	    18.000
   4.440        261.67	    17.720
   4.460        260.83	    17.692
   4.480        262.50	    17.748
   4.500        255.00	    17.493
   4.520        292.50	    18.735
   4.540        255.83	    17.521
   4.560        245.83	    17.176
   4.580        280.83	    18.358
   4.600        245.83	    17.176
   4.620        247.50	    17.234
   4.640        286.67	    18.547
   4.660        242.50	    17.059
   4.680        256.67	    17.550
   4.700        246.67	    17.205
   4.720        256.67	    17.550
   4.740        220.00	    16.248
   4.760        268.33	    17.944
   4.780        247.50	    17.234
   4.800        264.17	    17.804
   4.820        256.67	    17.550
   4.840        199.17	    15.460
   4.860        240.00	    16.971
   4.880        215.83	    16.093
   4.900        231.67	    16.673
   4.920        244.17	    17.117
   4.940        232.50	    16.703
   4.960        231.67	    16.673
   4.980        237.50	    16.882
   5.000        235.83	    16.823
   5.020        245.83	    17.176
   5.040        217.50	    16.155
   5.060        239.17	    16.941
   5.080        225.83	    16.462
   5.100        245.83	    17.176
   5.120        235.83	    16.823
   5.140        227.50	    16.523
   5.160        227.50	    16.523
   5.180        229.17	    16.583
   5.200        220.83	    16.279
   5.220        230.00	    16.613
   5.240        209.17	    15.843
   5.260        234.17	    16.763
   5.280        209.17	    15.843
   5.300        210.83	    15.906
   5.320        193.33	    15.232
   5.340        235.83	    16.823
   5.360        204.17	    15.652
   5.380        198.33	    15.427
   5.400        204.17	    15.652
   5.420        201.67	    15.556
   5.440        224.17	    16.401
   5.460        205.83	    15.716
   5.480        181.67	    14.765
   5.500        212.50	    15.969
   5.520        229.17	    16.583
   5.540        202.50	    15.588
   5.560        195.00	    15.297
   5.580        220.83	    16.279
   5.600        200.83	    15.524
   5.620        200.83	    15.524
   5.640        213.33	    16.000
   5.660        228.33	    16.553
   5.680        206.67	    15.748
   5.700        220.00	    16.248
   5.720        194.17	    15.264
   5.740        201.67	    15.556
   5.760        204.17	    15.652
   5.780        174.17	    14.457
   5.800        217.50	    16.155
   5.820        198.33	    15.427
   5.840        207.50	    15.780
   5.860        215.00	    16.062
   5.880        189.17	    15.067
   5.900        180.00	    14.697
   5.920        212.50	    15.969
   5.940        225.83	    16.462
   5.960        223.33	    16.371
   5.980        207.50	    15.780
   6.000        229.17	    16.583
   6.020        197.50	    15.395
   6.040        214.17	    16.031
   6.060        213.33	    16.000
   6.080        213.33	    16.000
   6.100        197.50	    15.395
   6.120        249.17	    17.292
   6.140        248.33	    17.263
   6.160        244.17	    17.117
   6.180        242.50	    17.059
   6.200        208.33	    15.811
   6.220        234.17	    16.763
   6.240        202.50	    15.588
   6.260        190.00	    15.100
   6.280        180.83	    14.731
   6.300        197.50	    15.395
   6.320        185.00	    14.900
   6.340        177.50	    14.595
   6.360        181.67	    14.765
   6.380        189.17	    15.067
   6.400        174.17	    14.457
   6.420        175.00	    14.491
   6.440        190.83	    15.133
   6.460        155.83	    13.675
   6.480        173.33	    14.422
   6.500        206.67	    15.748
   6.520        177.50	    14.595
   6.540        166.67	    14.142
   6.560        179.17	    14.663
   6.580        169.17	    14.248
   6.600        150.00	    13.416
   6.620        148.33	    13.342
   6.640        175.83	    14.526
   6.660        156.67	    13.711
   6.680        176.67	    14.560
   6.700        144.17	    13.153
   6.720        158.33	    13.784
   6.740        161.67	    13.928
   6.760        178.33	    14.629
   6.780        188.33	    15.033
   6.800        181.67	    14.765
   6.820        168.33	    14.213
   6.840        165.83	    14.107
   6.860        150.00	    13.416
   6.880        144.17	    13.153
   6.900        170.00	    14.283
   6.920        171.67	    14.353
   6.940        166.67	    14.142
   6.960        162.50	    13.964
   6.980        162.50	    13.964
   7.000        154.17	    13.601
   7.020        168.33	    14.213
   7.040        145.83	    13.229
   7.060        163.33	    14.000
   7.080        143.33	    13.115
   7.100        141.67	    13.038
   7.120        168.33	    14.213
   7.140        170.00	    14.283
   7.160        147.50	    13.304
   7.180        162.50	    13.964
   7.200        155.00	    13.638
   7.220        171.67	    14.353
   7.240        174.17	    14.457
   7.260        148.33	    13.342
   7.280        138.33	    12.884
   7.300        159.17	    13.820
   7.320        143.33	    13.115
   7.340        145.00	    13.191
   7.360        149.17	    13.379
   7.380        133.33	    12.649
   7.400        147.50	    13.304
   7.420        133.33	    12.649
   7.440        163.33	    14.000
   7.460        145.83	    13.229
   7.480        171.67	    14.353
   7.500        155.83	    13.675
   7.520        154.17	    13.601
   7.540        130.83	    12.530
   7.560        150.83	    13.454
   7.580        136.67	    12.806
   7.600        155.83	    13.675
   7.620        125.00	    12.247
   7.640        145.00	    13.191
   7.660        141.67	    13.038
   7.680        140.83	    13.000
   7.700        139.17	    12.923
   7.720        145.83	    13.229
   7.740        167.50	    14.177
   7.760        152.50	    13.528
   7.780        143.33	    13.115
   7.800        129.17	    12.450
   7.820        139.17	    12.923
   7.840        151.67	    13.491
   7.860        142.50	    13.077
   7.880        148.33	    13.342
   7.900        135.00	    12.728
   7.920        137.50	    12.845
   7.940        135.83	    12.767
   7.960        110.83	    11.533
   7.980        136.67	    12.806
   8.000        124.17	    12.207
   8.020        140.00	    12.961
   8.040        139.17	    12.923
   8.060        129.17	    12.450
   8.080        123.33	    12.166
   8.100        118.33	    11.916
   8.120        141.67	    13.038
   8.140        119.17	    11.958
   8.160        121.67	    12.083
   8.180        131.67	    12.570
   8.200        140.83	    13.000
   8.220        139.17	    12.923
   8.240        131.67	    12.570
   8.260        134.17	    12.689
   8.280        130.00	    12.490
   8.300        127.50	    12.369
   8.320        108.33	    11.402
   8.340        121.67	    12.083
   8.360        120.00	    12.000
   8.380        124.17	    12.207
   8.400        142.50	    13.077
   8.420        142.50	    13.077
   8.440        118.33	    11.916
   8.460        128.33	    12.410
   8.480        110.83	    11.533
   8.500        122.50	    12.124
   8.520        140.83	    13.000
   8.540        146.67	    13.266
   8.560        140.00	    12.961
   8.580        113.33	    11.662
   8.600        139.17	    12.923
   8.620        163.33	    14.000
   8.640        141.67	    13.038
   8.660        160.00	    13.856
   8.680        172.50	    14.387
   8.700        171.67	    14.353
   8.720        189.17	    15.067
   8.740        185.83	    14.933
   8.760        198.33	    15.427
   8.780        194.17	    15.264
   8.800        248.33	    17.263
   8.820        273.33	    18.111
   8.840        333.33	    20.000
   8.860        309.17	    19.261
   8.880        274.17	    18.138
   8.900        273.33	    18.111
   8.920        202.50	    15.588
   8.940        155.83	    13.675
   8.960        146.67	    13.266
   8.980        123.33	    12.166
   9.000        131.67	    12.570
   9.020        134.17	    12.689
   9.040        121.67	    12.083
   9.060        134.17	    12.689
   9.080        125.83	    12.288
   9.100        122.50	    12.124
   9.120        110.83	    11.533
   9.140        115.00	    11.747
   9.160        125.83	    12.288
   9.180        118.33	    11.916
   9.200        142.50	    13.077
   9.220        125.83	    12.288
   9.240        122.50	    12.124
   9.260        125.83	    12.288
   9.280        110.00	    11.489
   9.300        108.33	    11.402
   9.320        130.83	    12.530
   9.340        112.50	    11.619
   9.360        119.17	    11.958
   9.380        124.17	    12.207
   9.400        113.33	    11.662
   9.420        124.17	    12.207
   9.440        150.83	    13.454
   9.460        127.50	    12.369
   9.480        116.67	    11.832
   9.500        126.67	    12.329
   9.520        122.50	    12.124
   9.540        131.67	    12.570
   9.560        113.33	    11.662
   9.580         95.00	    10.677
   9.600        100.83	    11.000
   9.620        102.50	    11.091
   9.640        113.33	    11.662
   9.660         95.83	    10.724
   9.680        103.33	    11.136
   9.700        108.33	    11.402
   9.720         99.17	    10.909
   9.740         88.33	    10.296
   9.760        120.00	    12.000
   9.780        113.33	    11.662
   9.800        103.33	    11.136
   9.820        104.17	    11.180
   9.840        110.83	    11.533
   9.860         99.17	    10.909
   9.880         97.50	    10.817
   9.900        110.00	    11.489
   9.920         98.33	    10.863
   9.940         92.50	    10.536
   9.960        100.83	    11.000
   9.980         89.17	    10.344
  10.000         94.17	    10.630
  10.020        109.17	    11.446
  10.040        103.33	    11.136
  10.060        120.00	    12.000
  10.080         88.33	    10.296
  10.100         99.17	    10.909
  10.120        117.50	    11.874
  10.140         94.17	    10.630
  10.160        107.50	    11.358
  10.180         95.83	    10.724
  10.200        100.83	    11.000
  10.220         92.50	    10.536
  10.240        100.83	    11.000
  10.260        106.67	    11.314
  10.280         97.50	    10.817
  10.300         81.67	     9.899
  10.320        104.17	    11.180
  10.340        101.67	    11.045
  10.360        103.33	    11.136
  10.380        105.83	    11.269
  10.400         98.33	    10.863
  10.420        118.33	    11.916
  10.440        104.17	    11.180
  10.460        100.00	    10.954
  10.480        121.67	    12.083
  10.500        108.33	    11.402
  10.520        115.00	    11.747
  10.540        110.83	    11.533
  10.560        127.50	    12.369
  10.580        128.33	    12.410
  10.600        121.67	    12.083
  10.620        104.17	    11.180
  10.640         94.17	    10.630
  10.660        112.50	    11.619
  10.680         93.33	    10.583
  10.700         85.83	    10.149
  10.720         96.67	    10.770
  10.740         97.50	    10.817
  10.760        102.50	    11.091
  10.780         91.67	    10.488
  10.800         85.00	    10.100
  10.820         85.83	    10.149
  10.840         99.17	    10.909
  10.860        100.83	    11.000
  10.880         83.33	    10.000
  10.900         80.83	     9.849
  10.920        100.00	    10.954
  10.940        111.67	    11.576
  10.960         92.50	    10.536
  10.980        108.33	    11.402
  11.000         85.83	    10.149
  11.020         80.00	     9.798
  11.040        100.00	    10.954
  11.060         92.50	    10.536
  11.080        104.17	    11.180
  11.100         89.17	    10.344
  11.120         85.83	    10.149
  11.140         92.50	    10.536
  11.160         94.17	    10.630
  11.180         90.00	    10.392
  11.200         96.67	    10.770
  11.220         90.00	    10.392
  11.240         88.33	    10.296
  11.260         84.17	    10.050
  11.280         77.50	     9.644
  11.300         81.67	     9.899
  11.320         75.83	     9.539
  11.340         80.83	     9.849
  11.360         90.83	    10.440
  11.380         86.67	    10.198
  11.400         90.00	    10.392
  11.420        104.17	    11.180
  11.440         77.50	     9.644
  11.460         95.83	    10.724
  11.480         90.83	    10.440
  11.500         87.50	    10.247
  11.520         85.83	    10.149
  11.540         89.17	    10.344
  11.560         98.33	    10.863
  11.580        103.33	    11.136
  11.600         99.17	    10.909
  11.620        105.00	    11.225
  11.640         95.00	    10.677
  11.660         97.50	    10.817
  11.680         89.17	    10.344
  11.700         81.67	     9.899
  11.720         86.67	    10.198
  11.740         85.00	    10.100
  11.760         88.33	    10.296
  11.780        100.83	    11.000
  11.800         84.17	    10.050
  11.820        108.33	    11.402
  11.840         84.17	    10.050
  11.860        101.67	    11.045
  11.880         95.83	    10.724
  11.900        103.33	    11.136
  11.920         96.67	    10.770
  11.940         87.50	    10.247
  11.960        100.00	    10.954
  11.980        107.50	    11.358
  12.000        108.33	    11.402
  12.020        121.67	    12.083
  12.040        104.17	    11.180
  12.060        112.50	    11.619
  12.080        135.83	    12.767
  12.100        161.67	    13.928
  12.120        212.50	    15.969
  12.140        370.83	    21.095
  12.160        552.50	    25.749
  12.180        546.67	    25.612
  12.200        425.00	    22.583
  12.220        234.17	    16.763
  12.240        196.67	    15.362
  12.260        139.17	    12.923
  12.280        153.33	    13.565
  12.300        174.17	    14.457
  12.320        239.17	    16.941
  12.340        206.67	    15.748
  12.360        170.00	    14.283
  12.380        166.67	    14.142
  12.400        173.33	    14.422
  12.420        175.00	    14.491
  12.440        186.67	    14.967
  12.460        224.17	    16.401
  12.480        205.83	    15.716
  12.500        184.17	    14.866
  12.520        137.50	    12.845
  12.540        118.33	    11.916
  12.560        114.17	    11.705
  12.580         95.83	    10.724
  12.600         79.17	     9.747
  12.620         84.17	    10.050
  12.640         76.67	     9.592
  12.660         85.00	    10.100
  12.680         74.17	     9.434
  12.700         87.50	    10.247
  12.720         96.67	    10.770
  12.740         84.17	    10.050
  12.760         80.83	     9.849
  12.780        100.83	    11.000
  12.800         98.33	    10.863
  12.820         79.17	     9.747
  12.840         75.83	     9.539
  12.860         70.00	     9.165
  12.880         86.67	    10.198
  12.900         72.50	     9.327
  12.920         78.33	     9.695
  12.940         82.50	     9.950
  12.960         88.33	    10.296
  12.980         84.17	    10.050
  13.000         65.83	     8.888
  13.020         72.50	     9.327
  13.040         90.83	    10.440
  13.060         82.50	     9.950
  13.080         86.67	    10.198
  13.100         89.17	    10.344
  13.120         95.83	    10.724
  13.140         77.50	     9.644
  13.160         70.83	     9.220
  13.180         78.33	     9.695
  13.200         89.17	    10.344
  13.220         84.17	    10.050
  13.240         61.67	     8.602
  13.260         67.50	     9.000
  13.280         90.00	    10.392
  13.300         74.17	     9.434
  13.320         65.83	     8.888
  13.340         69.17	     9.110
  13.360         93.33	    10.583
  13.380         85.00	    10.100
  13.400         76.67	     9.592
  13.420         81.67	     9.899
  13.440         74.17	     9.434
  13.460         85.00	    10.100
  13.480         87.50	    10.247
  13.500         76.67	     9.592
  13.520         65.00	     8.832
  13.540         94.17	    10.630
  13.560         84.17	    10.050
  13.580         90.00	    10.392
  13.600         76.67	     9.592
  13.620         75.83	     9.539
  13.640         80.83	     9.849
  13.660         73.33	     9.381
  13.680         75.00	     9.487
  13.700         86.67	    10.198
  13.720         74.17	     9.434
  13.740         64.17	     8.775
  13.760         70.00	     9.165
  13.780         90.83	    10.440
  13.800         81.67	     9.899
  13.820         74.17	     9.434
  13.840         93.33	    10.583
  13.860         89.17	    10.344
  13.880         69.17	     9.110
  13.900         82.50	     9.950
  13.920         59.17	     8.426
  13.940         82.50	     9.950
  13.960         74.17	     9.434
  13.980         74.17	     9.434
  14.000         75.83	     9.539
  14.020         64.17	     8.775
  14.040         74.17	     9.434
  14.060         75.00	     9.487
  14.080         64.17	     8.775
  14.100         70.83	     9.220
  14.120         68.33	     9.055
  14.140         71.67	     9.274
  14.160         57.50	     8.307
  14.180         80.00	     9.798
  14.200         75.83	     9.539
  14.220         55.83	     8.185
  14.240         71.67	     9.274
  14.260         62.50	     8.660
  14.280         83.33	    10.000
  14.300         85.83	    10.149
  14.320         65.00	     8.832
  14.340         63.33	     8.718
  14.360         68.33	     9.055
  14.380         66.67	     8.944
  14.400         76.67	     9.592
