
Filename:
	C:\Program Files\Thermo Electron\WinXRD\Datafiles\F_HERMAN\GEO\G50_RT.raw

File Created:
	February 19, 2020 - 09:51 PM

Specimen Id:
	G50_RT

Specimen Name:
	

Specimen Description:
	

Comment:
Scan Type: 2Theta Scan
Start Angle: 3 deg.
Stop Angle: 65 deg.
Num Points: 3101
Step Size: 0.02 deg.
Scan Rate: 1.000000
Scan Mode: Continuous
Wavelength: 1.540562
\Kalpha1: 1.540562	\Kalpha2: 1.544390	\Kbeta: 1.392218

Optics:
		Detector:
			 Type: Fixed Slits
		Tube: 
			 Type: Fixed Slits


Datas:
 Pos [deg]       Rate [CPS]      ESD [-]

Range 1 ---> Iteration 1
   3.000        407.50	    22.113
   3.020        437.50	    22.913
   3.040        447.50	    23.173
   3.060        405.00	    22.045
   3.080        411.67	    22.226
   3.100        416.67	    22.361
   3.120        416.67	    22.361
   3.140        401.67	    21.954
   3.160        401.67	    21.954
   3.180        408.33	    22.136
   3.200        403.33	    22.000
   3.220        382.50	    21.424
   3.240        427.50	    22.650
   3.260        385.00	    21.494
   3.280        381.67	    21.401
   3.300        424.17	    22.561
   3.320        440.00	    22.978
   3.340        426.67	    22.627
   3.360        369.17	    21.048
   3.380        387.50	    21.564
   3.400        375.00	    21.213
   3.420        370.83	    21.095
   3.440        357.50	    20.712
   3.460        336.67	    20.100
   3.480        368.33	    21.024
   3.500        324.17	    19.723
   3.520        365.83	    20.952
   3.540        332.50	    19.975
   3.560        354.17	    20.616
   3.580        350.00	    20.494
   3.600        333.33	    20.000
   3.620        328.33	    19.849
   3.640        323.33	    19.698
   3.660        370.83	    21.095
   3.680        319.17	    19.570
   3.700        380.00	    21.354
   3.720        336.67	    20.100
   3.740        323.33	    19.698
   3.760        339.17	    20.174
   3.780        333.33	    20.000
   3.800        368.33	    21.024
   3.820        325.83	    19.774
   3.840        292.50	    18.735
   3.860        317.50	    19.519
   3.880        345.00	    20.347
   3.900        275.83	    18.193
   3.920        296.67	    18.868
   3.940        312.50	    19.365
   3.960        314.17	    19.416
   3.980        331.67	    19.950
   4.000        315.00	    19.442
   4.020        291.67	    18.708
   4.040        313.33	    19.391
   4.060        301.67	    19.026
   4.080        295.00	    18.815
   4.100        290.00	    18.655
   4.120        300.83	    19.000
   4.140        300.83	    19.000
   4.160        303.33	    19.079
   4.180        296.67	    18.868
   4.200        315.83	    19.468
   4.220        293.33	    18.762
   4.240        284.17	    18.466
   4.260        269.17	    17.972
   4.280        282.50	    18.412
   4.300        270.83	    18.028
   4.320        275.83	    18.193
   4.340        290.00	    18.655
   4.360        257.50	    17.578
   4.380        260.00	    17.664
   4.400        286.67	    18.547
   4.420        286.67	    18.547
   4.440        271.67	    18.055
   4.460        254.17	    17.464
   4.480        263.33	    17.776
   4.500        261.67	    17.720
   4.520        263.33	    17.776
   4.540        286.67	    18.547
   4.560        270.00	    18.000
   4.580        279.17	    18.303
   4.600        235.00	    16.793
   4.620        291.67	    18.708
   4.640        266.67	    17.889
   4.660        269.17	    17.972
   4.680        248.33	    17.263
   4.700        258.33	    17.607
   4.720        238.33	    16.912
   4.740        240.00	    16.971
   4.760        261.67	    17.720
   4.780        240.83	    17.000
   4.800        245.00	    17.146
   4.820        251.67	    17.378
   4.840        266.67	    17.889
   4.860        245.83	    17.176
   4.880        217.50	    16.155
   4.900        240.00	    16.971
   4.920        250.83	    17.349
   4.940        251.67	    17.378
   4.960        243.33	    17.088
   4.980        227.50	    16.523
   5.000        230.00	    16.613
   5.020        260.00	    17.664
   5.040        233.33	    16.733
   5.060        260.00	    17.664
   5.080        210.00	    15.875
   5.100        240.00	    16.971
   5.120        241.67	    17.029
   5.140        231.67	    16.673
   5.160        217.50	    16.155
   5.180        229.17	    16.583
   5.200        222.50	    16.340
   5.220        229.17	    16.583
   5.240        222.50	    16.340
   5.260        222.50	    16.340
   5.280        212.50	    15.969
   5.300        214.17	    16.031
   5.320        236.67	    16.852
   5.340        238.33	    16.912
   5.360        222.50	    16.340
   5.380        227.50	    16.523
   5.400        267.50	    17.916
   5.420        235.83	    16.823
   5.440        210.83	    15.906
   5.460        230.83	    16.643
   5.480        216.67	    16.125
   5.500        210.00	    15.875
   5.520        205.00	    15.684
   5.540        205.00	    15.684
   5.560        200.00	    15.492
   5.580        205.00	    15.684
   5.600        221.67	    16.310
   5.620        209.17	    15.843
   5.640        197.50	    15.395
   5.660        196.67	    15.362
   5.680        191.67	    15.166
   5.700        208.33	    15.811
   5.720        188.33	    15.033
   5.740        186.67	    14.967
   5.760        202.50	    15.588
   5.780        200.83	    15.524
   5.800        216.67	    16.125
   5.820        195.00	    15.297
   5.840        218.33	    16.186
   5.860        173.33	    14.422
   5.880        203.33	    15.620
   5.900        196.67	    15.362
   5.920        165.83	    14.107
   5.940        180.83	    14.731
   5.960        220.83	    16.279
   5.980        210.83	    15.906
   6.000        204.17	    15.652
   6.020        179.17	    14.663
   6.040        211.67	    15.937
   6.060        205.83	    15.716
   6.080        219.17	    16.217
   6.100        209.17	    15.843
   6.120        186.67	    14.967
   6.140        232.50	    16.703
   6.160        226.67	    16.492
   6.180        216.67	    16.125
   6.200        192.50	    15.199
   6.220        192.50	    15.199
   6.240        180.00	    14.697
   6.260        179.17	    14.663
   6.280        188.33	    15.033
   6.300        200.83	    15.524
   6.320        205.00	    15.684
   6.340        180.83	    14.731
   6.360        174.17	    14.457
   6.380        188.33	    15.033
   6.400        180.83	    14.731
   6.420        187.50	    15.000
   6.440        176.67	    14.560
   6.460        175.00	    14.491
   6.480        179.17	    14.663
   6.500        177.50	    14.595
   6.520        171.67	    14.353
   6.540        169.17	    14.248
   6.560        194.17	    15.264
   6.580        166.67	    14.142
   6.600        180.00	    14.697
   6.620        181.67	    14.765
   6.640        170.00	    14.283
   6.660        182.50	    14.799
   6.680        157.50	    13.748
   6.700        165.00	    14.071
   6.720        167.50	    14.177
   6.740        170.83	    14.318
   6.760        167.50	    14.177
   6.780        160.83	    13.892
   6.800        184.17	    14.866
   6.820        184.17	    14.866
   6.840        158.33	    13.784
   6.860        171.67	    14.353
   6.880        180.83	    14.731
   6.900        166.67	    14.142
   6.920        164.17	    14.036
   6.940        137.50	    12.845
   6.960        175.83	    14.526
   6.980        171.67	    14.353
   7.000        167.50	    14.177
   7.020        158.33	    13.784
   7.040        150.83	    13.454
   7.060        149.17	    13.379
   7.080        171.67	    14.353
   7.100        179.17	    14.663
   7.120        143.33	    13.115
   7.140        174.17	    14.457
   7.160        160.83	    13.892
   7.180        170.83	    14.318
   7.200        153.33	    13.565
   7.220        162.50	    13.964
   7.240        153.33	    13.565
   7.260        142.50	    13.077
   7.280        164.17	    14.036
   7.300        135.00	    12.728
   7.320        163.33	    14.000
   7.340        160.83	    13.892
   7.360        153.33	    13.565
   7.380        155.00	    13.638
   7.400        135.00	    12.728
   7.420        149.17	    13.379
   7.440        150.83	    13.454
   7.460        166.67	    14.142
   7.480        154.17	    13.601
   7.500        160.83	    13.892
   7.520        135.00	    12.728
   7.540        136.67	    12.806
   7.560        141.67	    13.038
   7.580        153.33	    13.565
   7.600        125.83	    12.288
   7.620        143.33	    13.115
   7.640        155.83	    13.675
   7.660        164.17	    14.036
   7.680        151.67	    13.491
   7.700        135.00	    12.728
   7.720        137.50	    12.845
   7.740        118.33	    11.916
   7.760        130.83	    12.530
   7.780        143.33	    13.115
   7.800        157.50	    13.748
   7.820        140.00	    12.961
   7.840        160.00	    13.856
   7.860        135.00	    12.728
   7.880        145.83	    13.229
   7.900        145.00	    13.191
   7.920        141.67	    13.038
   7.940        151.67	    13.491
   7.960        147.50	    13.304
   7.980        155.83	    13.675
   8.000        132.50	    12.610
   8.020        153.33	    13.565
   8.040        125.83	    12.288
   8.060        155.00	    13.638
   8.080        115.83	    11.790
   8.100        141.67	    13.038
   8.120        141.67	    13.038
   8.140        145.83	    13.229
   8.160        133.33	    12.649
   8.180        135.00	    12.728
   8.200        131.67	    12.570
   8.220        134.17	    12.689
   8.240        147.50	    13.304
   8.260        124.17	    12.207
   8.280        122.50	    12.124
   8.300        136.67	    12.806
   8.320        148.33	    13.342
   8.340        124.17	    12.207
   8.360        155.00	    13.638
   8.380        142.50	    13.077
   8.400        163.33	    14.000
   8.420        138.33	    12.884
   8.440        152.50	    13.528
   8.460        142.50	    13.077
   8.480        120.00	    12.000
   8.500        148.33	    13.342
   8.520        135.83	    12.767
   8.540        135.83	    12.767
   8.560        140.00	    12.961
   8.580        151.67	    13.491
   8.600        142.50	    13.077
   8.620        138.33	    12.884
   8.640        158.33	    13.784
   8.660        188.33	    15.033
   8.680        177.50	    14.595
   8.700        190.00	    15.100
   8.720        174.17	    14.457
   8.740        194.17	    15.264
   8.760        210.00	    15.875
   8.780        251.67	    17.378
   8.800        286.67	    18.547
   8.820        269.17	    17.972
   8.840        228.33	    16.553
   8.860        176.67	    14.560
   8.880        152.50	    13.528
   8.900        130.00	    12.490
   8.920        133.33	    12.649
   8.940        133.33	    12.649
   8.960        120.83	    12.042
   8.980        118.33	    11.916
   9.000        124.17	    12.207
   9.020        123.33	    12.166
   9.040        115.00	    11.747
   9.060        135.83	    12.767
   9.080        130.83	    12.530
   9.100        126.67	    12.329
   9.120        135.83	    12.767
   9.140        127.50	    12.369
   9.160        102.50	    11.091
   9.180        121.67	    12.083
   9.200        120.83	    12.042
   9.220        137.50	    12.845
   9.240        120.83	    12.042
   9.260         96.67	    10.770
   9.280        128.33	    12.410
   9.300        114.17	    11.705
   9.320        111.67	    11.576
   9.340        111.67	    11.576
   9.360        119.17	    11.958
   9.380        118.33	    11.916
   9.400        128.33	    12.410
   9.420        128.33	    12.410
   9.440        107.50	    11.358
   9.460        105.83	    11.269
   9.480        114.17	    11.705
   9.500        102.50	    11.091
   9.520        115.83	    11.790
   9.540        118.33	    11.916
   9.560        107.50	    11.358
   9.580        127.50	    12.369
   9.600        114.17	    11.705
   9.620        101.67	    11.045
   9.640        113.33	    11.662
   9.660        110.83	    11.533
   9.680        114.17	    11.705
   9.700        104.17	    11.180
   9.720        125.00	    12.247
   9.740        103.33	    11.136
   9.760        115.00	    11.747
   9.780        109.17	    11.446
   9.800        110.00	    11.489
   9.820        118.33	    11.916
   9.840        115.00	    11.747
   9.860        105.00	    11.225
   9.880        109.17	    11.446
   9.900         98.33	    10.863
   9.920        105.00	    11.225
   9.940        121.67	    12.083
   9.960        106.67	    11.314
   9.980        105.00	    11.225
  10.000        110.00	    11.489
  10.020        107.50	    11.358
  10.040        105.00	    11.225
  10.060         94.17	    10.630
  10.080        103.33	    11.136
  10.100        100.83	    11.000
  10.120        100.00	    10.954
  10.140         93.33	    10.583
  10.160         95.83	    10.724
  10.180        107.50	    11.358
  10.200        117.50	    11.874
  10.220         97.50	    10.817
  10.240        100.00	    10.954
  10.260         97.50	    10.817
  10.280        102.50	    11.091
  10.300        101.67	    11.045
  10.320        111.67	    11.576
  10.340        110.83	    11.533
  10.360        135.83	    12.767
  10.380        120.00	    12.000
  10.400        139.17	    12.923
  10.420        203.33	    15.620
  10.440        216.67	    16.125
  10.460        227.50	    16.523
  10.480        195.83	    15.330
  10.500        150.83	    13.454
  10.520        129.17	    12.450
  10.540         97.50	    10.817
  10.560        105.00	    11.225
  10.580         95.83	    10.724
  10.600        100.00	    10.954
  10.620        102.50	    11.091
  10.640        103.33	    11.136
  10.660        120.83	    12.042
  10.680         80.83	     9.849
  10.700        113.33	    11.662
  10.720        105.00	    11.225
  10.740         80.00	     9.798
  10.760        101.67	    11.045
  10.780        100.83	    11.000
  10.800         94.17	    10.630
  10.820         98.33	    10.863
  10.840        110.83	    11.533
  10.860        110.83	    11.533
  10.880        105.00	    11.225
  10.900        108.33	    11.402
  10.920        102.50	    11.091
  10.940        101.67	    11.045
  10.960         92.50	    10.536
  10.980         84.17	    10.050
  11.000         85.83	    10.149
  11.020         80.83	     9.849
  11.040         89.17	    10.344
  11.060         97.50	    10.817
  11.080         89.17	    10.344
  11.100         76.67	     9.592
  11.120         77.50	     9.644
  11.140         95.83	    10.724
  11.160         95.83	    10.724
  11.180         88.33	    10.296
  11.200         84.17	    10.050
  11.220         82.50	     9.950
  11.240        102.50	    11.091
  11.260         94.17	    10.630
  11.280         80.00	     9.798
  11.300         85.00	    10.100
  11.320         90.83	    10.440
  11.340        100.83	    11.000
  11.360        100.83	    11.000
  11.380         89.17	    10.344
  11.400         83.33	    10.000
  11.420         97.50	    10.817
  11.440        109.17	    11.446
  11.460         87.50	    10.247
  11.480         90.83	    10.440
  11.500        114.17	    11.705
  11.520        101.67	    11.045
  11.540         95.83	    10.724
  11.560         85.83	    10.149
  11.580         74.17	     9.434
  11.600         88.33	    10.296
  11.620         92.50	    10.536
  11.640         89.17	    10.344
  11.660         91.67	    10.488
  11.680        105.00	    11.225
  11.700         95.00	    10.677
  11.720         92.50	    10.536
  11.740         98.33	    10.863
  11.760         85.83	    10.149
  11.780        101.67	    11.045
  11.800         92.50	    10.536
  11.820         96.67	    10.770
  11.840         94.17	    10.630
  11.860         85.83	    10.149
  11.880         86.67	    10.198
  11.900         98.33	    10.863
  11.920         90.83	    10.440
  11.940        105.83	    11.269
  11.960         99.17	    10.909
  11.980        103.33	    11.136
  12.000        130.00	    12.490
  12.020        141.67	    13.038
  12.040        150.83	    13.454
  12.060        168.33	    14.213
  12.080        183.33	    14.832
  12.100        215.00	    16.062
  12.120        230.00	    16.613
  12.140        274.17	    18.138
  12.160        217.50	    16.155
  12.180        173.33	    14.422
  12.200        148.33	    13.342
  12.220        140.83	    13.000
  12.240        135.83	    12.767
  12.260        160.00	    13.856
  12.280        143.33	    13.115
  12.300        140.00	    12.961
  12.320        136.67	    12.806
  12.340        114.17	    11.705
  12.360        121.67	    12.083
  12.380        149.17	    13.379
  12.400        177.50	    14.595
  12.420        182.50	    14.799
  12.440        137.50	    12.845
  12.460        138.33	    12.884
  12.480        123.33	    12.166
  12.500         98.33	    10.863
  12.520         93.33	    10.583
  12.540         95.00	    10.677
  12.560         88.33	    10.296
  12.580         78.33	     9.695
  12.600         80.00	     9.798
  12.620         85.83	    10.149
  12.640         96.67	    10.770
  12.660         93.33	    10.583
  12.680         77.50	     9.644
  12.700         85.83	    10.149
  12.720         94.17	    10.630
  12.740        102.50	    11.091
  12.760         84.17	    10.050
  12.780         82.50	     9.950
  12.800         79.17	     9.747
  12.820         72.50	     9.327
  12.840         81.67	     9.899
  12.860         73.33	     9.381
  12.880         80.83	     9.849
  12.900         80.83	     9.849
  12.920         78.33	     9.695
  12.940         73.33	     9.381
  12.960         80.83	     9.849
  12.980         61.67	     8.602
  13.000         92.50	    10.536
  13.020         75.00	     9.487
  13.040         84.17	    10.050
  13.060         78.33	     9.695
  13.080         80.00	     9.798
  13.100         94.17	    10.630
  13.120         65.83	     8.888
  13.140         81.67	     9.899
  13.160         77.50	     9.644
  13.180         90.83	    10.440
  13.200         83.33	    10.000
  13.220         75.83	     9.539
  13.240         76.67	     9.592
  13.260         72.50	     9.327
  13.280         87.50	    10.247
  13.300         87.50	    10.247
  13.320         91.67	    10.488
  13.340         85.83	    10.149
  13.360         78.33	     9.695
  13.380         82.50	     9.950
  13.400         76.67	     9.592
  13.420         75.00	     9.487
  13.440         81.67	     9.899
  13.460         62.50	     8.660
  13.480         85.00	    10.100
  13.500         74.17	     9.434
  13.520         75.00	     9.487
  13.540        102.50	    11.091
  13.560         78.33	     9.695
  13.580         89.17	    10.344
  13.600         77.50	     9.644
  13.620         67.50	     9.000
  13.640         82.50	     9.950
  13.660         71.67	     9.274
  13.680         80.83	     9.849
  13.700         70.83	     9.220
  13.720         91.67	    10.488
  13.740         89.17	    10.344
  13.760         95.83	    10.724
  13.780        104.17	    11.180
  13.800        113.33	    11.662
  13.820        108.33	    11.402
  13.840         91.67	    10.488
  13.860         80.00	     9.798
  13.880         77.50	     9.644
  13.900         81.67	     9.899
  13.920         87.50	    10.247
  13.940         85.00	    10.100
  13.960         87.50	    10.247
  13.980         70.00	     9.165
  14.000         83.33	    10.000
  14.020         74.17	     9.434
  14.040         81.67	     9.899
  14.060         70.83	     9.220
  14.080         69.17	     9.110
  14.100         68.33	     9.055
  14.120         73.33	     9.381
  14.140         66.67	     8.944
  14.160         82.50	     9.950
  14.180         65.83	     8.888
  14.200         75.83	     9.539
  14.220         82.50	     9.950
  14.240         65.00	     8.832
  14.260         73.33	     9.381
  14.280         78.33	     9.695
  14.300         77.50	     9.644
  14.320         72.50	     9.327
  14.340         77.50	     9.644
  14.360         92.50	    10.536
  14.380         52.50	     7.937
  14.400         67.50	     9.000
