
Filename:
	C:\Program Files\Thermo Electron\WinXRD\Datafiles\F_HERMAN\GEO\G51_RT.raw

File Created:
	February 19, 2020 - 12:25 AM

Specimen Id:
	G51_RT

Specimen Name:
	

Specimen Description:
	

Comment:
Scan Type: 2Theta Scan
Start Angle: 3 deg.
Stop Angle: 65 deg.
Num Points: 3101
Step Size: 0.02 deg.
Scan Rate: 1.000000
Scan Mode: Continuous
Wavelength: 1.540562
\Kalpha1: 1.540562	\Kalpha2: 1.544390	\Kbeta: 1.392218

Optics:
		Detector:
			 Type: Fixed Slits
		Tube: 
			 Type: Fixed Slits


Datas:
 Pos [deg]       Rate [CPS]      ESD [-]

Range 1 ---> Iteration 1
   3.000        439.17	    22.956
   3.020        397.50	    21.840
   3.040        416.67	    22.361
   3.060        417.50	    22.383
   3.080        443.33	    23.065
   3.100        437.50	    22.913
   3.120        440.83	    23.000
   3.140        426.67	    22.627
   3.160        434.17	    22.825
   3.180        406.67	    22.091
   3.200        432.50	    22.782
   3.220        366.67	    20.976
   3.240        413.33	    22.271
   3.260        418.33	    22.405
   3.280        445.83	    23.130
   3.300        407.50	    22.113
   3.320        400.00	    21.909
   3.340        375.83	    21.237
   3.360        375.83	    21.237
   3.380        382.50	    21.424
   3.400        390.83	    21.656
   3.420        374.17	    21.190
   3.440        380.00	    21.354
   3.460        405.00	    22.045
   3.480        399.17	    21.886
   3.500        363.33	    20.881
   3.520        378.33	    21.307
   3.540        360.83	    20.809
   3.560        383.33	    21.448
   3.580        366.67	    20.976
   3.600        364.17	    20.905
   3.620        354.17	    20.616
   3.640        370.00	    21.071
   3.660        346.67	    20.396
   3.680        353.33	    20.591
   3.700        350.00	    20.494
   3.720        350.83	    20.518
   3.740        347.50	    20.421
   3.760        327.50	    19.824
   3.780        333.33	    20.000
   3.800        328.33	    19.849
   3.820        317.50	    19.519
   3.840        345.00	    20.347
   3.860        314.17	    19.416
   3.880        312.50	    19.365
   3.900        340.83	    20.224
   3.920        302.50	    19.053
   3.940        312.50	    19.365
   3.960        314.17	    19.416
   3.980        295.83	    18.841
   4.000        318.33	    19.545
   4.020        297.50	    18.894
   4.040        301.67	    19.026
   4.060        303.33	    19.079
   4.080        285.83	    18.520
   4.100        303.33	    19.079
   4.120        306.67	    19.183
   4.140        295.83	    18.841
   4.160        300.00	    18.974
   4.180        285.83	    18.520
   4.200        308.33	    19.235
   4.220        283.33	    18.439
   4.240        283.33	    18.439
   4.260        288.33	    18.601
   4.280        278.33	    18.276
   4.300        267.50	    17.916
   4.320        306.67	    19.183
   4.340        270.83	    18.028
   4.360        276.67	    18.221
   4.380        312.50	    19.365
   4.400        262.50	    17.748
   4.420        270.83	    18.028
   4.440        307.50	    19.209
   4.460        290.83	    18.682
   4.480        288.33	    18.601
   4.500        246.67	    17.205
   4.520        244.17	    17.117
   4.540        290.83	    18.682
   4.560        273.33	    18.111
   4.580        284.17	    18.466
   4.600        268.33	    17.944
   4.620        259.17	    17.635
   4.640        255.83	    17.521
   4.660        261.67	    17.720
   4.680        265.83	    17.861
   4.700        262.50	    17.748
   4.720        256.67	    17.550
   4.740        263.33	    17.776
   4.760        264.17	    17.804
   4.780        260.83	    17.692
   4.800        246.67	    17.205
   4.820        266.67	    17.889
   4.840        265.00	    17.833
   4.860        247.50	    17.234
   4.880        232.50	    16.703
   4.900        222.50	    16.340
   4.920        225.83	    16.462
   4.940        216.67	    16.125
   4.960        250.83	    17.349
   4.980        238.33	    16.912
   5.000        220.00	    16.248
   5.020        250.83	    17.349
   5.040        240.83	    17.000
   5.060        235.83	    16.823
   5.080        223.33	    16.371
   5.100        247.50	    17.234
   5.120        247.50	    17.234
   5.140        221.67	    16.310
   5.160        239.17	    16.941
   5.180        222.50	    16.340
   5.200        237.50	    16.882
   5.220        240.83	    17.000
   5.240        210.83	    15.906
   5.260        237.50	    16.882
   5.280        253.33	    17.436
   5.300        228.33	    16.553
   5.320        236.67	    16.852
   5.340        227.50	    16.523
   5.360        228.33	    16.553
   5.380        222.50	    16.340
   5.400        221.67	    16.310
   5.420        212.50	    15.969
   5.440        214.17	    16.031
   5.460        202.50	    15.588
   5.480        208.33	    15.811
   5.500        233.33	    16.733
   5.520        201.67	    15.556
   5.540        195.83	    15.330
   5.560        232.50	    16.703
   5.580        231.67	    16.673
   5.600        228.33	    16.553
   5.620        220.00	    16.248
   5.640        189.17	    15.067
   5.660        195.00	    15.297
   5.680        196.67	    15.362
   5.700        232.50	    16.703
   5.720        204.17	    15.652
   5.740        206.67	    15.748
   5.760        222.50	    16.340
   5.780        190.83	    15.133
   5.800        216.67	    16.125
   5.820        204.17	    15.652
   5.840        233.33	    16.733
   5.860        215.83	    16.093
   5.880        202.50	    15.588
   5.900        229.17	    16.583
   5.920        178.33	    14.629
   5.940        216.67	    16.125
   5.960        213.33	    16.000
   5.980        214.17	    16.031
   6.000        225.00	    16.432
   6.020        205.83	    15.716
   6.040        251.67	    17.378
   6.060        230.00	    16.613
   6.080        258.33	    17.607
   6.100        266.67	    17.889
   6.120        274.17	    18.138
   6.140        232.50	    16.703
   6.160        237.50	    16.882
   6.180        223.33	    16.371
   6.200        205.83	    15.716
   6.220        191.67	    15.166
   6.240        211.67	    15.937
   6.260        196.67	    15.362
   6.280        212.50	    15.969
   6.300        180.83	    14.731
   6.320        189.17	    15.067
   6.340        182.50	    14.799
   6.360        180.00	    14.697
   6.380        195.00	    15.297
   6.400        194.17	    15.264
   6.420        179.17	    14.663
   6.440        146.67	    13.266
   6.460        158.33	    13.784
   6.480        180.83	    14.731
   6.500        193.33	    15.232
   6.520        180.83	    14.731
   6.540        183.33	    14.832
   6.560        177.50	    14.595
   6.580        164.17	    14.036
   6.600        195.83	    15.330
   6.620        180.00	    14.697
   6.640        185.00	    14.900
   6.660        191.67	    15.166
   6.680        151.67	    13.491
   6.700        180.83	    14.731
   6.720        183.33	    14.832
   6.740        188.33	    15.033
   6.760        183.33	    14.832
   6.780        165.00	    14.071
   6.800        165.83	    14.107
   6.820        160.83	    13.892
   6.840        191.67	    15.166
   6.860        148.33	    13.342
   6.880        160.00	    13.856
   6.900        176.67	    14.560
   6.920        177.50	    14.595
   6.940        159.17	    13.820
   6.960        157.50	    13.748
   6.980        169.17	    14.248
   7.000        185.00	    14.900
   7.020        151.67	    13.491
   7.040        157.50	    13.748
   7.060        170.00	    14.283
   7.080        170.00	    14.283
   7.100        160.83	    13.892
   7.120        155.00	    13.638
   7.140        160.00	    13.856
   7.160        165.00	    14.071
   7.180        156.67	    13.711
   7.200        172.50	    14.387
   7.220        165.00	    14.071
   7.240        149.17	    13.379
   7.260        146.67	    13.266
   7.280        185.00	    14.900
   7.300        171.67	    14.353
   7.320        169.17	    14.248
   7.340        175.00	    14.491
   7.360        166.67	    14.142
   7.380        148.33	    13.342
   7.400        160.83	    13.892
   7.420        168.33	    14.213
   7.440        152.50	    13.528
   7.460        166.67	    14.142
   7.480        140.83	    13.000
   7.500        125.00	    12.247
   7.520        164.17	    14.036
   7.540        152.50	    13.528
   7.560        131.67	    12.570
   7.580        160.00	    13.856
   7.600        147.50	    13.304
   7.620        160.00	    13.856
   7.640        172.50	    14.387
   7.660        152.50	    13.528
   7.680        142.50	    13.077
   7.700        147.50	    13.304
   7.720        163.33	    14.000
   7.740        125.83	    12.288
   7.760        140.00	    12.961
   7.780        143.33	    13.115
   7.800        145.83	    13.229
   7.820        135.83	    12.767
   7.840        140.83	    13.000
   7.860        147.50	    13.304
   7.880        145.00	    13.191
   7.900        152.50	    13.528
   7.920        131.67	    12.570
   7.940        135.83	    12.767
   7.960        137.50	    12.845
   7.980        155.00	    13.638
   8.000        134.17	    12.689
   8.020        140.00	    12.961
   8.040        130.83	    12.530
   8.060        142.50	    13.077
   8.080        130.00	    12.490
   8.100        131.67	    12.570
   8.120        145.83	    13.229
   8.140        135.00	    12.728
   8.160        132.50	    12.610
   8.180        136.67	    12.806
   8.200        133.33	    12.649
   8.220        135.00	    12.728
   8.240        134.17	    12.689
   8.260        135.83	    12.767
   8.280        150.83	    13.454
   8.300        144.17	    13.153
   8.320        160.00	    13.856
   8.340        149.17	    13.379
   8.360        138.33	    12.884
   8.380        144.17	    13.153
   8.400        158.33	    13.784
   8.420        164.17	    14.036
   8.440        162.50	    13.964
   8.460        150.83	    13.454
   8.480        135.00	    12.728
   8.500        163.33	    14.000
   8.520        155.00	    13.638
   8.540        156.67	    13.711
   8.560        174.17	    14.457
   8.580        163.33	    14.000
   8.600        178.33	    14.629
   8.620        170.83	    14.318
   8.640        190.00	    15.100
   8.660        231.67	    16.673
   8.680        240.00	    16.971
   8.700        233.33	    16.733
   8.720        265.83	    17.861
   8.740        300.00	    18.974
   8.760        334.17	    20.025
   8.780        415.00	    22.316
   8.800        471.67	    23.791
   8.820        375.00	    21.213
   8.840        245.83	    17.176
   8.860        171.67	    14.353
   8.880        167.50	    14.177
   8.900        146.67	    13.266
   8.920        155.00	    13.638
   8.940        136.67	    12.806
   8.960        150.00	    13.416
   8.980        137.50	    12.845
   9.000        138.33	    12.884
   9.020        126.67	    12.329
   9.040        144.17	    13.153
   9.060        137.50	    12.845
   9.080        125.00	    12.247
   9.100        141.67	    13.038
   9.120        135.00	    12.728
   9.140        116.67	    11.832
   9.160        112.50	    11.619
   9.180        134.17	    12.689
   9.200         95.83	    10.724
   9.220        145.00	    13.191
   9.240        117.50	    11.874
   9.260        140.83	    13.000
   9.280        121.67	    12.083
   9.300        123.33	    12.166
   9.320        141.67	    13.038
   9.340        158.33	    13.784
   9.360        170.83	    14.318
   9.380        155.83	    13.675
   9.400        136.67	    12.806
   9.420        118.33	    11.916
   9.440        112.50	    11.619
   9.460        129.17	    12.450
   9.480        127.50	    12.369
   9.500        125.83	    12.288
   9.520        108.33	    11.402
   9.540         97.50	    10.817
   9.560        125.83	    12.288
   9.580        113.33	    11.662
   9.600        138.33	    12.884
   9.620        123.33	    12.166
   9.640        123.33	    12.166
   9.660        120.00	    12.000
   9.680        101.67	    11.045
   9.700        127.50	    12.369
   9.720        123.33	    12.166
   9.740        115.00	    11.747
   9.760        106.67	    11.314
   9.780        100.00	    10.954
   9.800        104.17	    11.180
   9.820         95.00	    10.677
   9.840        113.33	    11.662
   9.860        101.67	    11.045
   9.880        120.00	    12.000
   9.900         99.17	    10.909
   9.920        110.83	    11.533
   9.940        115.00	    11.747
   9.960        108.33	    11.402
   9.980         97.50	    10.817
  10.000        107.50	    11.358
  10.020        101.67	    11.045
  10.040        114.17	    11.705
  10.060        110.00	    11.489
  10.080        105.83	    11.269
  10.100        107.50	    11.358
  10.120        129.17	    12.450
  10.140         98.33	    10.863
  10.160        108.33	    11.402
  10.180        109.17	    11.446
  10.200        100.83	    11.000
  10.220         90.83	    10.440
  10.240        109.17	    11.446
  10.260        127.50	    12.369
  10.280         85.00	    10.100
  10.300        120.00	    12.000
  10.320        110.00	    11.489
  10.340        122.50	    12.124
  10.360        115.00	    11.747
  10.380        137.50	    12.845
  10.400        150.00	    13.416
  10.420        172.50	    14.387
  10.440        190.00	    15.100
  10.460        166.67	    14.142
  10.480        158.33	    13.784
  10.500        110.00	    11.489
  10.520        130.00	    12.490
  10.540        106.67	    11.314
  10.560         89.17	    10.344
  10.580         98.33	    10.863
  10.600        120.83	    12.042
  10.620         85.83	    10.149
  10.640        115.83	    11.790
  10.660         96.67	    10.770
  10.680         90.00	    10.392
  10.700        104.17	    11.180
  10.720        103.33	    11.136
  10.740         93.33	    10.583
  10.760         80.00	     9.798
  10.780         98.33	    10.863
  10.800        109.17	    11.446
  10.820        105.83	    11.269
  10.840        112.50	    11.619
  10.860        101.67	    11.045
  10.880         99.17	    10.909
  10.900         88.33	    10.296
  10.920         97.50	    10.817
  10.940         99.17	    10.909
  10.960         86.67	    10.198
  10.980         86.67	    10.198
  11.000         86.67	    10.198
  11.020         96.67	    10.770
  11.040         87.50	    10.247
  11.060         90.00	    10.392
  11.080         94.17	    10.630
  11.100         91.67	    10.488
  11.120         86.67	    10.198
  11.140        104.17	    11.180
  11.160         83.33	    10.000
  11.180         79.17	     9.747
  11.200         89.17	    10.344
  11.220        106.67	    11.314
  11.240         73.33	     9.381
  11.260         88.33	    10.296
  11.280         88.33	    10.296
  11.300         92.50	    10.536
  11.320         98.33	    10.863
  11.340         79.17	     9.747
  11.360         85.83	    10.149
  11.380         80.00	     9.798
  11.400        100.83	    11.000
  11.420         90.00	    10.392
  11.440         89.17	    10.344
  11.460        103.33	    11.136
  11.480        111.67	    11.576
  11.500         88.33	    10.296
  11.520         80.83	     9.849
  11.540         81.67	     9.899
  11.560         97.50	    10.817
  11.580         92.50	    10.536
  11.600         87.50	    10.247
  11.620         91.67	    10.488
  11.640         90.83	    10.440
  11.660         95.83	    10.724
  11.680         99.17	    10.909
  11.700         83.33	    10.000
  11.720        100.83	    11.000
  11.740         95.83	    10.724
  11.760         98.33	    10.863
  11.780         85.83	    10.149
  11.800        111.67	    11.576
  11.820         95.83	    10.724
  11.840         81.67	     9.899
  11.860        100.83	    11.000
  11.880        106.67	    11.314
  11.900         85.00	    10.100
  11.920        109.17	    11.446
  11.940         99.17	    10.909
  11.960        108.33	    11.402
  11.980        155.83	    13.675
  12.000        135.00	    12.728
  12.020        150.83	    13.454
  12.040        185.00	    14.900
  12.060        273.33	    18.111
  12.080        352.50	    20.567
  12.100        382.50	    21.424
  12.120        332.50	    19.975
  12.140        248.33	    17.263
  12.160        174.17	    14.457
  12.180        162.50	    13.964
  12.200        164.17	    14.036
  12.220        161.67	    13.928
  12.240        211.67	    15.937
  12.260        229.17	    16.583
  12.280        215.00	    16.062
  12.300        195.83	    15.330
  12.320        195.83	    15.330
  12.340        178.33	    14.629
  12.360        192.50	    15.199
  12.380        240.83	    17.000
  12.400        247.50	    17.234
  12.420        242.50	    17.059
  12.440        210.83	    15.906
  12.460        145.00	    13.191
  12.480        116.67	    11.832
  12.500         95.83	    10.724
  12.520        107.50	    11.358
  12.540         94.17	    10.630
  12.560         96.67	    10.770
  12.580         95.83	    10.724
  12.600         74.17	     9.434
  12.620         73.33	     9.381
  12.640         98.33	    10.863
  12.660         98.33	    10.863
  12.680         96.67	    10.770
  12.700         81.67	     9.899
  12.720         83.33	    10.000
  12.740         80.83	     9.849
  12.760         85.00	    10.100
  12.780         89.17	    10.344
  12.800         93.33	    10.583
  12.820         66.67	     8.944
  12.840         85.83	    10.149
  12.860         88.33	    10.296
  12.880         75.83	     9.539
  12.900         95.00	    10.677
  12.920         72.50	     9.327
  12.940         63.33	     8.718
  12.960         93.33	    10.583
  12.980         80.83	     9.849
  13.000         85.00	    10.100
  13.020         75.83	     9.539
  13.040         65.83	     8.888
  13.060         79.17	     9.747
  13.080         86.67	    10.198
  13.100         87.50	    10.247
  13.120         78.33	     9.695
  13.140         89.17	    10.344
  13.160         65.83	     8.888
  13.180         66.67	     8.944
  13.200         85.00	    10.100
  13.220         67.50	     9.000
  13.240         85.83	    10.149
  13.260         95.00	    10.677
  13.280         75.00	     9.487
  13.300         90.00	    10.392
  13.320         80.83	     9.849
  13.340         67.50	     9.000
  13.360         79.17	     9.747
  13.380         82.50	     9.950
  13.400         64.17	     8.775
  13.420         84.17	    10.050
  13.440         67.50	     9.000
  13.460         83.33	    10.000
  13.480         65.00	     8.832
  13.500         93.33	    10.583
  13.520         82.50	     9.950
  13.540         96.67	    10.770
  13.560         84.17	    10.050
  13.580         75.83	     9.539
  13.600         75.83	     9.539
  13.620         64.17	     8.775
  13.640         73.33	     9.381
  13.660         84.17	    10.050
  13.680         73.33	     9.381
  13.700         83.33	    10.000
  13.720         83.33	    10.000
  13.740        108.33	    11.402
  13.760         98.33	    10.863
  13.780         94.17	    10.630
  13.800         97.50	    10.817
  13.820         92.50	    10.536
  13.840        107.50	    11.358
  13.860         72.50	     9.327
  13.880         80.00	     9.798
  13.900         85.00	    10.100
  13.920         81.67	     9.899
  13.940         81.67	     9.899
  13.960         79.17	     9.747
  13.980         71.67	     9.274
  14.000         88.33	    10.296
  14.020         61.67	     8.602
  14.040         82.50	     9.950
  14.060         54.17	     8.062
  14.080         56.67	     8.246
  14.100         55.00	     8.124
  14.120         87.50	    10.247
  14.140         80.83	     9.849
  14.160         76.67	     9.592
  14.180         73.33	     9.381
  14.200         73.33	     9.381
  14.220         71.67	     9.274
  14.240         72.50	     9.327
  14.260         70.83	     9.220
  14.280         58.33	     8.367
  14.300         66.67	     8.944
  14.320         72.50	     9.327
  14.340         57.50	     8.307
  14.360         85.83	    10.149
  14.380         70.83	     9.220
  14.400         69.17	     9.110
