
Filename:
	C:\Program Files\Thermo Electron\WinXRD\Datafiles\F_HERMAN\GEO\G53_RT.raw

File Created:
	February 19, 2020 - 01:28 AM

Specimen Id:
	G53_RT

Specimen Name:
	

Specimen Description:
	

Comment:
Scan Type: 2Theta Scan
Start Angle: 3 deg.
Stop Angle: 65 deg.
Num Points: 3101
Step Size: 0.02 deg.
Scan Rate: 1.000000
Scan Mode: Continuous
Wavelength: 1.540562
\Kalpha1: 1.540562	\Kalpha2: 1.544390	\Kbeta: 1.392218

Optics:
		Detector:
			 Type: Fixed Slits
		Tube: 
			 Type: Fixed Slits


Datas:
 Pos [deg]       Rate [CPS]      ESD [-]

Range 1 ---> Iteration 1
   3.000        443.33	    23.065
   3.020        426.67	    22.627
   3.040        450.83	    23.259
   3.060        430.83	    22.738
   3.080        440.00	    22.978
   3.100        429.17	    22.694
   3.120        464.17	    23.601
   3.140        434.17	    22.825
   3.160        445.00	    23.108
   3.180        448.33	    23.195
   3.200        398.33	    21.863
   3.220        420.83	    22.472
   3.240        403.33	    22.000
   3.260        423.33	    22.539
   3.280        418.33	    22.405
   3.300        393.33	    21.726
   3.320        399.17	    21.886
   3.340        388.33	    21.587
   3.360        382.50	    21.424
   3.380        378.33	    21.307
   3.400        422.50	    22.517
   3.420        418.33	    22.405
   3.440        387.50	    21.564
   3.460        370.00	    21.071
   3.480        387.50	    21.564
   3.500        376.67	    21.260
   3.520        370.83	    21.095
   3.540        371.67	    21.119
   3.560        386.67	    21.541
   3.580        342.50	    20.273
   3.600        395.00	    21.772
   3.620        364.17	    20.905
   3.640        362.50	    20.857
   3.660        370.00	    21.071
   3.680        345.83	    20.372
   3.700        363.33	    20.881
   3.720        355.00	    20.640
   3.740        341.67	    20.248
   3.760        367.50	    21.000
   3.780        348.33	    20.445
   3.800        340.83	    20.224
   3.820        325.83	    19.774
   3.840        294.17	    18.788
   3.860        338.33	    20.149
   3.880        352.50	    20.567
   3.900        341.67	    20.248
   3.920        310.00	    19.287
   3.940        346.67	    20.396
   3.960        328.33	    19.849
   3.980        356.67	    20.688
   4.000        322.50	    19.672
   4.020        316.67	    19.494
   4.040        327.50	    19.824
   4.060        336.67	    20.100
   4.080        302.50	    19.053
   4.100        309.17	    19.261
   4.120        308.33	    19.235
   4.140        302.50	    19.053
   4.160        290.83	    18.682
   4.180        310.83	    19.313
   4.200        324.17	    19.723
   4.220        322.50	    19.672
   4.240        331.67	    19.950
   4.260        300.83	    19.000
   4.280        284.17	    18.466
   4.300        287.50	    18.574
   4.320        307.50	    19.209
   4.340        301.67	    19.026
   4.360        283.33	    18.439
   4.380        285.00	    18.493
   4.400        282.50	    18.412
   4.420        302.50	    19.053
   4.440        249.17	    17.292
   4.460        266.67	    17.889
   4.480        275.00	    18.166
   4.500        285.83	    18.520
   4.520        268.33	    17.944
   4.540        291.67	    18.708
   4.560        251.67	    17.378
   4.580        271.67	    18.055
   4.600        243.33	    17.088
   4.620        263.33	    17.776
   4.640        274.17	    18.138
   4.660        260.00	    17.664
   4.680        275.00	    18.166
   4.700        274.17	    18.138
   4.720        270.00	    18.000
   4.740        263.33	    17.776
   4.760        261.67	    17.720
   4.780        281.67	    18.385
   4.800        268.33	    17.944
   4.820        236.67	    16.852
   4.840        249.17	    17.292
   4.860        270.00	    18.000
   4.880        262.50	    17.748
   4.900        241.67	    17.029
   4.920        263.33	    17.776
   4.940        245.00	    17.146
   4.960        238.33	    16.912
   4.980        263.33	    17.776
   5.000        244.17	    17.117
   5.020        260.83	    17.692
   5.040        245.83	    17.176
   5.060        236.67	    16.852
   5.080        243.33	    17.088
   5.100        253.33	    17.436
   5.120        255.83	    17.521
   5.140        252.50	    17.407
   5.160        241.67	    17.029
   5.180        219.17	    16.217
   5.200        246.67	    17.205
   5.220        240.83	    17.000
   5.240        240.83	    17.000
   5.260        237.50	    16.882
   5.280        225.83	    16.462
   5.300        220.83	    16.279
   5.320        213.33	    16.000
   5.340        254.17	    17.464
   5.360        215.00	    16.062
   5.380        255.00	    17.493
   5.400        214.17	    16.031
   5.420        210.83	    15.906
   5.440        251.67	    17.378
   5.460        246.67	    17.205
   5.480        233.33	    16.733
   5.500        205.00	    15.684
   5.520        225.00	    16.432
   5.540        203.33	    15.620
   5.560        237.50	    16.882
   5.580        222.50	    16.340
   5.600        238.33	    16.912
   5.620        218.33	    16.186
   5.640        231.67	    16.673
   5.660        235.00	    16.793
   5.680        211.67	    15.937
   5.700        221.67	    16.310
   5.720        207.50	    15.780
   5.740        236.67	    16.852
   5.760        210.83	    15.906
   5.780        209.17	    15.843
   5.800        239.17	    16.941
   5.820        227.50	    16.523
   5.840        234.17	    16.763
   5.860        225.00	    16.432
   5.880        262.50	    17.748
   5.900        222.50	    16.340
   5.920        247.50	    17.234
   5.940        230.83	    16.643
   5.960        238.33	    16.912
   5.980        238.33	    16.912
   6.000        243.33	    17.088
   6.020        268.33	    17.944
   6.040        302.50	    19.053
   6.060        303.33	    19.079
   6.080        294.17	    18.788
   6.100        316.67	    19.494
   6.120        309.17	    19.261
   6.140        335.83	    20.075
   6.160        291.67	    18.708
   6.180        263.33	    17.776
   6.200        230.00	    16.613
   6.220        222.50	    16.340
   6.240        201.67	    15.556
   6.260        193.33	    15.232
   6.280        193.33	    15.232
   6.300        180.83	    14.731
   6.320        192.50	    15.199
   6.340        220.00	    16.248
   6.360        196.67	    15.362
   6.380        172.50	    14.387
   6.400        188.33	    15.033
   6.420        171.67	    14.353
   6.440        197.50	    15.395
   6.460        198.33	    15.427
   6.480        186.67	    14.967
   6.500        171.67	    14.353
   6.520        193.33	    15.232
   6.540        175.00	    14.491
   6.560        199.17	    15.460
   6.580        192.50	    15.199
   6.600        175.83	    14.526
   6.620        185.00	    14.900
   6.640        185.00	    14.900
   6.660        186.67	    14.967
   6.680        197.50	    15.395
   6.700        159.17	    13.820
   6.720        196.67	    15.362
   6.740        203.33	    15.620
   6.760        226.67	    16.492
   6.780        172.50	    14.387
   6.800        191.67	    15.166
   6.820        182.50	    14.799
   6.840        169.17	    14.248
   6.860        179.17	    14.663
   6.880        180.00	    14.697
   6.900        161.67	    13.928
   6.920        195.00	    15.297
   6.940        175.00	    14.491
   6.960        194.17	    15.264
   6.980        179.17	    14.663
   7.000        181.67	    14.765
   7.020        166.67	    14.142
   7.040        173.33	    14.422
   7.060        155.00	    13.638
   7.080        181.67	    14.765
   7.100        193.33	    15.232
   7.120        184.17	    14.866
   7.140        181.67	    14.765
   7.160        183.33	    14.832
   7.180        180.00	    14.697
   7.200        173.33	    14.422
   7.220        164.17	    14.036
   7.240        186.67	    14.967
   7.260        198.33	    15.427
   7.280        168.33	    14.213
   7.300        164.17	    14.036
   7.320        140.83	    13.000
   7.340        159.17	    13.820
   7.360        169.17	    14.248
   7.380        178.33	    14.629
   7.400        165.00	    14.071
   7.420        155.00	    13.638
   7.440        158.33	    13.784
   7.460        168.33	    14.213
   7.480        170.83	    14.318
   7.500        170.00	    14.283
   7.520        161.67	    13.928
   7.540        154.17	    13.601
   7.560        175.83	    14.526
   7.580        164.17	    14.036
   7.600        180.83	    14.731
   7.620        140.83	    13.000
   7.640        155.00	    13.638
   7.660        163.33	    14.000
   7.680        150.83	    13.454
   7.700        145.83	    13.229
   7.720        184.17	    14.866
   7.740        167.50	    14.177
   7.760        159.17	    13.820
   7.780        160.00	    13.856
   7.800        163.33	    14.000
   7.820        159.17	    13.820
   7.840        166.67	    14.142
   7.860        141.67	    13.038
   7.880        138.33	    12.884
   7.900        148.33	    13.342
   7.920        166.67	    14.142
   7.940        165.83	    14.107
   7.960        170.00	    14.283
   7.980        171.67	    14.353
   8.000        174.17	    14.457
   8.020        164.17	    14.036
   8.040        178.33	    14.629
   8.060        150.83	    13.454
   8.080        142.50	    13.077
   8.100        154.17	    13.601
   8.120        135.83	    12.767
   8.140        155.83	    13.675
   8.160        154.17	    13.601
   8.180        168.33	    14.213
   8.200        155.83	    13.675
   8.220        159.17	    13.820
   8.240        175.00	    14.491
   8.260        145.00	    13.191
   8.280        177.50	    14.595
   8.300        181.67	    14.765
   8.320        181.67	    14.765
   8.340        190.00	    15.100
   8.360        164.17	    14.036
   8.380        162.50	    13.964
   8.400        171.67	    14.353
   8.420        179.17	    14.663
   8.440        172.50	    14.387
   8.460        185.00	    14.900
   8.480        185.83	    14.933
   8.500        187.50	    15.000
   8.520        192.50	    15.199
   8.540        178.33	    14.629
   8.560        229.17	    16.583
   8.580        258.33	    17.607
   8.600        270.83	    18.028
   8.620        302.50	    19.053
   8.640        299.17	    18.947
   8.660        360.83	    20.809
   8.680        395.00	    21.772
   8.700        389.17	    21.610
   8.720        470.00	    23.749
   8.740        596.67	    26.758
   8.760        765.83	    30.315
   8.780        900.83	    32.879
   8.800        873.33	    32.373
   8.820        642.50	    27.767
   8.840        359.17	    20.761
   8.860        237.50	    16.882
   8.880        186.67	    14.967
   8.900        156.67	    13.711
   8.920        168.33	    14.213
   8.940        160.83	    13.892
   8.960        162.50	    13.964
   8.980        151.67	    13.491
   9.000        144.17	    13.153
   9.020        160.83	    13.892
   9.040        170.83	    14.318
   9.060        187.50	    15.000
   9.080        183.33	    14.832
   9.100        200.00	    15.492
   9.120        166.67	    14.142
   9.140        148.33	    13.342
   9.160        146.67	    13.266
   9.180        157.50	    13.748
   9.200        128.33	    12.410
   9.220        142.50	    13.077
   9.240        131.67	    12.570
   9.260        155.00	    13.638
   9.280        131.67	    12.570
   9.300        162.50	    13.964
   9.320        150.83	    13.454
   9.340        154.17	    13.601
   9.360        132.50	    12.610
   9.380        147.50	    13.304
   9.400        156.67	    13.711
   9.420        137.50	    12.845
   9.440        131.67	    12.570
   9.460        109.17	    11.446
   9.480        110.00	    11.489
   9.500        149.17	    13.379
   9.520        124.17	    12.207
   9.540        130.00	    12.490
   9.560        128.33	    12.410
   9.580        129.17	    12.450
   9.600        115.00	    11.747
   9.620        134.17	    12.689
   9.640        125.00	    12.247
   9.660        120.00	    12.000
   9.680        129.17	    12.450
   9.700        101.67	    11.045
   9.720        132.50	    12.610
   9.740        119.17	    11.958
   9.760        106.67	    11.314
   9.780        123.33	    12.166
   9.800        105.83	    11.269
   9.820        121.67	    12.083
   9.840        125.00	    12.247
   9.860        119.17	    11.958
   9.880        120.00	    12.000
   9.900        115.83	    11.790
   9.920        115.00	    11.747
   9.940        120.00	    12.000
   9.960        125.83	    12.288
   9.980        124.17	    12.207
  10.000        112.50	    11.619
  10.020        110.83	    11.533
  10.040        117.50	    11.874
  10.060        103.33	    11.136
  10.080        109.17	    11.446
  10.100         97.50	    10.817
  10.120        103.33	    11.136
  10.140        113.33	    11.662
  10.160        115.00	    11.747
  10.180        107.50	    11.358
  10.200        117.50	    11.874
  10.220        124.17	    12.207
  10.240        118.33	    11.916
  10.260        115.00	    11.747
  10.280        103.33	    11.136
  10.300        114.17	    11.705
  10.320        120.00	    12.000
  10.340        124.17	    12.207
  10.360        150.00	    13.416
  10.380        135.83	    12.767
  10.400        155.83	    13.675
  10.420        160.83	    13.892
  10.440        155.00	    13.638
  10.460        156.67	    13.711
  10.480        125.83	    12.288
  10.500        116.67	    11.832
  10.520        118.33	    11.916
  10.540        123.33	    12.166
  10.560        117.50	    11.874
  10.580        116.67	    11.832
  10.600        101.67	    11.045
  10.620        106.67	    11.314
  10.640        111.67	    11.576
  10.660        135.00	    12.728
  10.680        107.50	    11.358
  10.700        112.50	    11.619
  10.720        114.17	    11.705
  10.740        105.83	    11.269
  10.760        102.50	    11.091
  10.780        108.33	    11.402
  10.800        130.83	    12.530
  10.820        102.50	    11.091
  10.840        118.33	    11.916
  10.860        108.33	    11.402
  10.880        114.17	    11.705
  10.900        113.33	    11.662
  10.920        110.00	    11.489
  10.940        126.67	    12.329
  10.960        115.83	    11.790
  10.980         92.50	    10.536
  11.000         95.83	    10.724
  11.020         90.00	    10.392
  11.040         99.17	    10.909
  11.060        114.17	    11.705
  11.080        114.17	    11.705
  11.100        113.33	    11.662
  11.120         98.33	    10.863
  11.140         95.83	    10.724
  11.160        100.00	    10.954
  11.180         99.17	    10.909
  11.200         94.17	    10.630
  11.220        110.00	    11.489
  11.240        110.00	    11.489
  11.260         96.67	    10.770
  11.280        116.67	    11.832
  11.300         90.00	    10.392
  11.320        106.67	    11.314
  11.340         99.17	    10.909
  11.360        100.83	    11.000
  11.380        105.00	    11.225
  11.400        100.83	    11.000
  11.420        123.33	    12.166
  11.440         95.83	    10.724
  11.460        105.00	    11.225
  11.480         99.17	    10.909
  11.500        102.50	    11.091
  11.520         95.83	    10.724
  11.540         97.50	    10.817
  11.560        115.00	    11.747
  11.580        125.83	    12.288
  11.600        115.00	    11.747
  11.620        120.00	    12.000
  11.640         89.17	    10.344
  11.660         95.83	    10.724
  11.680         92.50	    10.536
  11.700        105.83	    11.269
  11.720        113.33	    11.662
  11.740         94.17	    10.630
  11.760        117.50	    11.874
  11.780        106.67	    11.314
  11.800        107.50	    11.358
  11.820        108.33	    11.402
  11.840         95.00	    10.677
  11.860        127.50	    12.369
  11.880        133.33	    12.649
  11.900        130.83	    12.530
  11.920        121.67	    12.083
  11.940        125.83	    12.288
  11.960        110.00	    11.489
  11.980        170.00	    14.283
  12.000        184.17	    14.866
  12.020        219.17	    16.217
  12.040        293.33	    18.762
  12.060        503.33	    24.576
  12.080        731.67	    29.631
  12.100        853.33	    32.000
  12.120        737.50	    29.749
  12.140        495.00	    24.372
  12.160        268.33	    17.944
  12.180        224.17	    16.401
  12.200        191.67	    15.166
  12.220        237.50	    16.882
  12.240        260.83	    17.692
  12.260        248.33	    17.263
  12.280        286.67	    18.547
  12.300        286.67	    18.547
  12.320        271.67	    18.055
  12.340        290.83	    18.682
  12.360        281.67	    18.385
  12.380        383.33	    21.448
  12.400        391.67	    21.679
  12.420        385.83	    21.517
  12.440        305.00	    19.131
  12.460        222.50	    16.340
  12.480        138.33	    12.884
  12.500        114.17	    11.705
  12.520        127.50	    12.369
  12.540        124.17	    12.207
  12.560        106.67	    11.314
  12.580        116.67	    11.832
  12.600         98.33	    10.863
  12.620         86.67	    10.198
  12.640        110.83	    11.533
  12.660        109.17	    11.446
  12.680         89.17	    10.344
  12.700        103.33	    11.136
  12.720         95.83	    10.724
  12.740        100.00	    10.954
  12.760         91.67	    10.488
  12.780         95.83	    10.724
  12.800        102.50	    11.091
  12.820         85.00	    10.100
  12.840         86.67	    10.198
  12.860        114.17	    11.705
  12.880        101.67	    11.045
  12.900        100.00	    10.954
  12.920         85.00	    10.100
  12.940         98.33	    10.863
  12.960        100.83	    11.000
  12.980         82.50	     9.950
  13.000         91.67	    10.488
  13.020         83.33	    10.000
  13.040         85.00	    10.100
  13.060        105.00	    11.225
  13.080         91.67	    10.488
  13.100         94.17	    10.630
  13.120         89.17	    10.344
  13.140         85.00	    10.100
  13.160        105.00	    11.225
  13.180         86.67	    10.198
  13.200         85.83	    10.149
  13.220        100.83	    11.000
  13.240         90.83	    10.440
  13.260        107.50	    11.358
  13.280        104.17	    11.180
  13.300        101.67	    11.045
  13.320         96.67	    10.770
  13.340        101.67	    11.045
  13.360        105.83	    11.269
  13.380        106.67	    11.314
  13.400         97.50	    10.817
  13.420        101.67	    11.045
  13.440        105.00	    11.225
  13.460        103.33	    11.136
  13.480         80.00	     9.798
  13.500         90.00	    10.392
  13.520        110.83	    11.533
  13.540        113.33	    11.662
  13.560        105.83	    11.269
  13.580         89.17	    10.344
  13.600        102.50	    11.091
  13.620         71.67	     9.274
  13.640         87.50	    10.247
  13.660         83.33	    10.000
  13.680         86.67	    10.198
  13.700         90.00	    10.392
  13.720        116.67	    11.832
  13.740        132.50	    12.610
  13.760        160.83	    13.892
  13.780        146.67	    13.266
  13.800        117.50	    11.874
  13.820         99.17	    10.909
  13.840         89.17	    10.344
  13.860        105.83	    11.269
  13.880         90.83	    10.440
  13.900         76.67	     9.592
  13.920         93.33	    10.583
  13.940        100.00	    10.954
  13.960         91.67	    10.488
  13.980         95.00	    10.677
  14.000         75.83	     9.539
  14.020         86.67	    10.198
  14.040         81.67	     9.899
  14.060         66.67	     8.944
  14.080         66.67	     8.944
  14.100         76.67	     9.592
  14.120         74.17	     9.434
  14.140         60.83	     8.544
  14.160         65.83	     8.888
  14.180         70.00	     9.165
  14.200         81.67	     9.899
  14.220         71.67	     9.274
  14.240         71.67	     9.274
  14.260         90.83	    10.440
  14.280         91.67	    10.488
  14.300         78.33	     9.695
  14.320         69.17	     9.110
  14.340         86.67	    10.198
  14.360         75.83	     9.539
  14.380         79.17	     9.747
  14.400         68.33	     9.055
