
Filename:
	C:\Program Files\Thermo Electron\WinXRD\Datafiles\F_HERMAN\GEO\G54_RT.raw

File Created:
	February 20, 2020 - 06:59 PM

Specimen Id:
	G54_RT

Specimen Name:
	

Specimen Description:
	

Comment:
Scan Type: 2Theta Scan
Start Angle: 3 deg.
Stop Angle: 65 deg.
Num Points: 3101
Step Size: 0.02 deg.
Scan Rate: 1.000000
Scan Mode: Continuous
Wavelength: 1.540562
\Kalpha1: 1.540562	\Kalpha2: 1.544390	\Kbeta: 1.392218

Optics:
		Detector:
			 Type: Fixed Slits
		Tube: 
			 Type: Fixed Slits


Datas:
 Pos [deg]       Rate [CPS]      ESD [-]

Range 1 ---> Iteration 1
   3.000        442.50	    23.043
   3.020        436.67	    22.891
   3.040        395.00	    21.772
   3.060        381.67	    21.401
   3.080        379.17	    21.331
   3.100        408.33	    22.136
   3.120        420.00	    22.450
   3.140        423.33	    22.539
   3.160        408.33	    22.136
   3.180        424.17	    22.561
   3.200        436.67	    22.891
   3.220        392.50	    21.703
   3.240        407.50	    22.113
   3.260        390.83	    21.656
   3.280        394.17	    21.749
   3.300        390.00	    21.633
   3.320        408.33	    22.136
   3.340        368.33	    21.024
   3.360        382.50	    21.424
   3.380        356.67	    20.688
   3.400        370.83	    21.095
   3.420        366.67	    20.976
   3.440        378.33	    21.307
   3.460        367.50	    21.000
   3.480        340.83	    20.224
   3.500        352.50	    20.567
   3.520        379.17	    21.331
   3.540        335.83	    20.075
   3.560        359.17	    20.761
   3.580        365.83	    20.952
   3.600        326.67	    19.799
   3.620        340.00	    20.199
   3.640        340.83	    20.224
   3.660        340.00	    20.199
   3.680        335.00	    20.050
   3.700        346.67	    20.396
   3.720        318.33	    19.545
   3.740        326.67	    19.799
   3.760        313.33	    19.391
   3.780        341.67	    20.248
   3.800        318.33	    19.545
   3.820        322.50	    19.672
   3.840        307.50	    19.209
   3.860        329.17	    19.875
   3.880        313.33	    19.391
   3.900        320.83	    19.621
   3.920        290.00	    18.655
   3.940        295.83	    18.841
   3.960        335.83	    20.075
   3.980        328.33	    19.849
   4.000        300.00	    18.974
   4.020        284.17	    18.466
   4.040        305.00	    19.131
   4.060        319.17	    19.570
   4.080        296.67	    18.868
   4.100        275.83	    18.193
   4.120        291.67	    18.708
   4.140        268.33	    17.944
   4.160        279.17	    18.303
   4.180        274.17	    18.138
   4.200        297.50	    18.894
   4.220        275.83	    18.193
   4.240        265.83	    17.861
   4.260        255.00	    17.493
   4.280        287.50	    18.574
   4.300        291.67	    18.708
   4.320        240.00	    16.971
   4.340        260.83	    17.692
   4.360        290.83	    18.682
   4.380        291.67	    18.708
   4.400        269.17	    17.972
   4.420        279.17	    18.303
   4.440        289.17	    18.628
   4.460        240.83	    17.000
   4.480        247.50	    17.234
   4.500        261.67	    17.720
   4.520        269.17	    17.972
   4.540        257.50	    17.578
   4.560        242.50	    17.059
   4.580        294.17	    18.788
   4.600        245.00	    17.146
   4.620        249.17	    17.292
   4.640        242.50	    17.059
   4.660        256.67	    17.550
   4.680        247.50	    17.234
   4.700        256.67	    17.550
   4.720        248.33	    17.263
   4.740        260.00	    17.664
   4.760        243.33	    17.088
   4.780        252.50	    17.407
   4.800        240.83	    17.000
   4.820        246.67	    17.205
   4.840        246.67	    17.205
   4.860        221.67	    16.310
   4.880        221.67	    16.310
   4.900        226.67	    16.492
   4.920        233.33	    16.733
   4.940        236.67	    16.852
   4.960        226.67	    16.492
   4.980        254.17	    17.464
   5.000        258.33	    17.607
   5.020        235.83	    16.823
   5.040        229.17	    16.583
   5.060        245.83	    17.176
   5.080        242.50	    17.059
   5.100        212.50	    15.969
   5.120        213.33	    16.000
   5.140        192.50	    15.199
   5.160        195.00	    15.297
   5.180        225.00	    16.432
   5.200        203.33	    15.620
   5.220        215.83	    16.093
   5.240        219.17	    16.217
   5.260        196.67	    15.362
   5.280        200.00	    15.492
   5.300        209.17	    15.843
   5.320        210.83	    15.906
   5.340        225.83	    16.462
   5.360        203.33	    15.620
   5.380        245.00	    17.146
   5.400        206.67	    15.748
   5.420        215.00	    16.062
   5.440        215.00	    16.062
   5.460        215.83	    16.093
   5.480        191.67	    15.166
   5.500        192.50	    15.199
   5.520        229.17	    16.583
   5.540        209.17	    15.843
   5.560        236.67	    16.852
   5.580        213.33	    16.000
   5.600        240.83	    17.000
   5.620        203.33	    15.620
   5.640        203.33	    15.620
   5.660        199.17	    15.460
   5.680        201.67	    15.556
   5.700        210.00	    15.875
   5.720        211.67	    15.937
   5.740        199.17	    15.460
   5.760        215.83	    16.093
   5.780        213.33	    16.000
   5.800        243.33	    17.088
   5.820        215.00	    16.062
   5.840        220.00	    16.248
   5.860        221.67	    16.310
   5.880        215.00	    16.062
   5.900        212.50	    15.969
   5.920        240.00	    16.971
   5.940        253.33	    17.436
   5.960        264.17	    17.804
   5.980        280.83	    18.358
   6.000        244.17	    17.117
   6.020        281.67	    18.385
   6.040        280.00	    18.330
   6.060        282.50	    18.412
   6.080        301.67	    19.026
   6.100        285.83	    18.520
   6.120        276.67	    18.221
   6.140        259.17	    17.635
   6.160        258.33	    17.607
   6.180        221.67	    16.310
   6.200        205.00	    15.684
   6.220        202.50	    15.588
   6.240        183.33	    14.832
   6.260        156.67	    13.711
   6.280        186.67	    14.967
   6.300        186.67	    14.967
   6.320        187.50	    15.000
   6.340        171.67	    14.353
   6.360        184.17	    14.866
   6.380        165.83	    14.107
   6.400        185.83	    14.933
   6.420        187.50	    15.000
   6.440        170.00	    14.283
   6.460        183.33	    14.832
   6.480        192.50	    15.199
   6.500        179.17	    14.663
   6.520        194.17	    15.264
   6.540        180.83	    14.731
   6.560        189.17	    15.067
   6.580        185.00	    14.900
   6.600        172.50	    14.387
   6.620        182.50	    14.799
   6.640        160.83	    13.892
   6.660        163.33	    14.000
   6.680        191.67	    15.166
   6.700        169.17	    14.248
   6.720        174.17	    14.457
   6.740        186.67	    14.967
   6.760        145.00	    13.191
   6.780        172.50	    14.387
   6.800        180.00	    14.697
   6.820        181.67	    14.765
   6.840        184.17	    14.866
   6.860        175.83	    14.526
   6.880        174.17	    14.457
   6.900        175.83	    14.526
   6.920        187.50	    15.000
   6.940        178.33	    14.629
   6.960        143.33	    13.115
   6.980        180.83	    14.731
   7.000        170.83	    14.318
   7.020        157.50	    13.748
   7.040        166.67	    14.142
   7.060        157.50	    13.748
   7.080        169.17	    14.248
   7.100        147.50	    13.304
   7.120        165.83	    14.107
   7.140        171.67	    14.353
   7.160        185.83	    14.933
   7.180        166.67	    14.142
   7.200        169.17	    14.248
   7.220        175.00	    14.491
   7.240        181.67	    14.765
   7.260        156.67	    13.711
   7.280        172.50	    14.387
   7.300        170.00	    14.283
   7.320        141.67	    13.038
   7.340        152.50	    13.528
   7.360        155.83	    13.675
   7.380        155.83	    13.675
   7.400        156.67	    13.711
   7.420        147.50	    13.304
   7.440        158.33	    13.784
   7.460        169.17	    14.248
   7.480        150.00	    13.416
   7.500        139.17	    12.923
   7.520        133.33	    12.649
   7.540        169.17	    14.248
   7.560        168.33	    14.213
   7.580        171.67	    14.353
   7.600        148.33	    13.342
   7.620        147.50	    13.304
   7.640        136.67	    12.806
   7.660        148.33	    13.342
   7.680        132.50	    12.610
   7.700        139.17	    12.923
   7.720        157.50	    13.748
   7.740        138.33	    12.884
   7.760        155.00	    13.638
   7.780        143.33	    13.115
   7.800        165.00	    14.071
   7.820        140.83	    13.000
   7.840        165.00	    14.071
   7.860        146.67	    13.266
   7.880        149.17	    13.379
   7.900        145.83	    13.229
   7.920        146.67	    13.266
   7.940        153.33	    13.565
   7.960        139.17	    12.923
   7.980        140.00	    12.961
   8.000        131.67	    12.570
   8.020        135.83	    12.767
   8.040        135.00	    12.728
   8.060        147.50	    13.304
   8.080        135.00	    12.728
   8.100        164.17	    14.036
   8.120        150.83	    13.454
   8.140        152.50	    13.528
   8.160        146.67	    13.266
   8.180        156.67	    13.711
   8.200        140.00	    12.961
   8.220        142.50	    13.077
   8.240        168.33	    14.213
   8.260        157.50	    13.748
   8.280        167.50	    14.177
   8.300        156.67	    13.711
   8.320        150.83	    13.454
   8.340        165.83	    14.107
   8.360        176.67	    14.560
   8.380        165.00	    14.071
   8.400        181.67	    14.765
   8.420        175.00	    14.491
   8.440        188.33	    15.033
   8.460        172.50	    14.387
   8.480        202.50	    15.588
   8.500        210.00	    15.875
   8.520        201.67	    15.556
   8.540        246.67	    17.205
   8.560        230.83	    16.643
   8.580        270.00	    18.000
   8.600        299.17	    18.947
   8.620        316.67	    19.494
   8.640        375.00	    21.213
   8.660        377.50	    21.284
   8.680        425.83	    22.605
   8.700        456.67	    23.409
   8.720        531.67	    25.259
   8.740        717.50	    29.343
   8.760        934.17	    33.481
   8.780        952.50	    33.808
   8.800        663.33	    28.213
   8.820        394.17	    21.749
   8.840        266.67	    17.889
   8.860        185.83	    14.933
   8.880        170.83	    14.318
   8.900        165.83	    14.107
   8.920        148.33	    13.342
   8.940        152.50	    13.528
   8.960        161.67	    13.928
   8.980        166.67	    14.142
   9.000        161.67	    13.928
   9.020        142.50	    13.077
   9.040        141.67	    13.038
   9.060        160.83	    13.892
   9.080        140.83	    13.000
   9.100        137.50	    12.845
   9.120        135.00	    12.728
   9.140        115.00	    11.747
   9.160        139.17	    12.923
   9.180        140.83	    13.000
   9.200        126.67	    12.329
   9.220        128.33	    12.410
   9.240        124.17	    12.207
   9.260        134.17	    12.689
   9.280        140.00	    12.961
   9.300        134.17	    12.689
   9.320        161.67	    13.928
   9.340        156.67	    13.711
   9.360        134.17	    12.689
   9.380        129.17	    12.450
   9.400        138.33	    12.884
   9.420        130.00	    12.490
   9.440        132.50	    12.610
   9.460        119.17	    11.958
   9.480        105.83	    11.269
   9.500        126.67	    12.329
   9.520        123.33	    12.166
   9.540        114.17	    11.705
   9.560        125.00	    12.247
   9.580         99.17	    10.909
   9.600        119.17	    11.958
   9.620        110.00	    11.489
   9.640        125.83	    12.288
   9.660        122.50	    12.124
   9.680        119.17	    11.958
   9.700        105.83	    11.269
   9.720        109.17	    11.446
   9.740        102.50	    11.091
   9.760        115.00	    11.747
   9.780        107.50	    11.358
   9.800         95.83	    10.724
   9.820         88.33	    10.296
   9.840         97.50	    10.817
   9.860        110.83	    11.533
   9.880        101.67	    11.045
   9.900        114.17	    11.705
   9.920        100.83	    11.000
   9.940        118.33	    11.916
   9.960        108.33	    11.402
   9.980        120.00	    12.000
  10.000        105.00	    11.225
  10.020        106.67	    11.314
  10.040         95.83	    10.724
  10.060        106.67	    11.314
  10.080        107.50	    11.358
  10.100        110.83	    11.533
  10.120        111.67	    11.576
  10.140         99.17	    10.909
  10.160         96.67	    10.770
  10.180        113.33	    11.662
  10.200        101.67	    11.045
  10.220         90.00	    10.392
  10.240         98.33	    10.863
  10.260        103.33	    11.136
  10.280        102.50	    11.091
  10.300        133.33	    12.649
  10.320        133.33	    12.649
  10.340        131.67	    12.570
  10.360        144.17	    13.153
  10.380        117.50	    11.874
  10.400        130.00	    12.490
  10.420        121.67	    12.083
  10.440        141.67	    13.038
  10.460        144.17	    13.153
  10.480        125.83	    12.288
  10.500        100.83	    11.000
  10.520        109.17	    11.446
  10.540         95.83	    10.724
  10.560         99.17	    10.909
  10.580        103.33	    11.136
  10.600         83.33	    10.000
  10.620        107.50	    11.358
  10.640        101.67	    11.045
  10.660        105.83	    11.269
  10.680        110.83	    11.533
  10.700        100.00	    10.954
  10.720        110.00	    11.489
  10.740         90.00	    10.392
  10.760         99.17	    10.909
  10.780         76.67	     9.592
  10.800        112.50	    11.619
  10.820         94.17	    10.630
  10.840         84.17	    10.050
  10.860         92.50	    10.536
  10.880        103.33	    11.136
  10.900         92.50	    10.536
  10.920         94.17	    10.630
  10.940         93.33	    10.583
  10.960         98.33	    10.863
  10.980         96.67	    10.770
  11.000         85.00	    10.100
  11.020        101.67	    11.045
  11.040         91.67	    10.488
  11.060        101.67	    11.045
  11.080         92.50	    10.536
  11.100         80.00	     9.798
  11.120         91.67	    10.488
  11.140        104.17	    11.180
  11.160         91.67	    10.488
  11.180         98.33	    10.863
  11.200        102.50	    11.091
  11.220        100.83	    11.000
  11.240         86.67	    10.198
  11.260         90.00	    10.392
  11.280         98.33	    10.863
  11.300         90.00	    10.392
  11.320         83.33	    10.000
  11.340         86.67	    10.198
  11.360         93.33	    10.583
  11.380         90.83	    10.440
  11.400         84.17	    10.050
  11.420        111.67	    11.576
  11.440         87.50	    10.247
  11.460         90.00	    10.392
  11.480         87.50	    10.247
  11.500         84.17	    10.050
  11.520        100.83	    11.000
  11.540         88.33	    10.296
  11.560        102.50	    11.091
  11.580         89.17	    10.344
  11.600         90.00	    10.392
  11.620         87.50	    10.247
  11.640        114.17	    11.705
  11.660        100.83	    11.000
  11.680         95.00	    10.677
  11.700        109.17	    11.446
  11.720         96.67	    10.770
  11.740        104.17	    11.180
  11.760        110.00	    11.489
  11.780        110.00	    11.489
  11.800        108.33	    11.402
  11.820         88.33	    10.296
  11.840        111.67	    11.576
  11.860         92.50	    10.536
  11.880        120.00	    12.000
  11.900        100.83	    11.000
  11.920        120.83	    12.042
  11.940        112.50	    11.619
  11.960        117.50	    11.874
  11.980        135.83	    12.767
  12.000        138.33	    12.884
  12.020        180.83	    14.731
  12.040        255.00	    17.493
  12.060        331.67	    19.950
  12.080        416.67	    22.361
  12.100        364.17	    20.905
  12.120        351.67	    20.543
  12.140        253.33	    17.436
  12.160        176.67	    14.560
  12.180        179.17	    14.663
  12.200        166.67	    14.142
  12.220        205.00	    15.684
  12.240        200.83	    15.524
  12.260        195.00	    15.297
  12.280        193.33	    15.232
  12.300        193.33	    15.232
  12.320        210.00	    15.875
  12.340        250.00	    17.321
  12.360        240.83	    17.000
  12.380        296.67	    18.868
  12.400        310.00	    19.287
  12.420        271.67	    18.055
  12.440        213.33	    16.000
  12.460        142.50	    13.077
  12.480        121.67	    12.083
  12.500        115.00	    11.747
  12.520         87.50	    10.247
  12.540         97.50	    10.817
  12.560         92.50	    10.536
  12.580         93.33	    10.583
  12.600         86.67	    10.198
  12.620         99.17	    10.909
  12.640         95.83	    10.724
  12.660        100.00	    10.954
  12.680         82.50	     9.950
  12.700         93.33	    10.583
  12.720         69.17	     9.110
  12.740         80.83	     9.849
  12.760         79.17	     9.747
  12.780         86.67	    10.198
  12.800         76.67	     9.592
  12.820         80.00	     9.798
  12.840         85.00	    10.100
  12.860         75.00	     9.487
  12.880         78.33	     9.695
  12.900         97.50	    10.817
  12.920         81.67	     9.899
  12.940         94.17	    10.630
  12.960         76.67	     9.592
  12.980         99.17	    10.909
  13.000         84.17	    10.050
  13.020         81.67	     9.899
  13.040         88.33	    10.296
  13.060         81.67	     9.899
  13.080         66.67	     8.944
  13.100         92.50	    10.536
  13.120         80.83	     9.849
  13.140         89.17	    10.344
  13.160         95.83	    10.724
  13.180         86.67	    10.198
  13.200         85.83	    10.149
  13.220         93.33	    10.583
  13.240         86.67	    10.198
  13.260         70.00	     9.165
  13.280         74.17	     9.434
  13.300         91.67	    10.488
  13.320         84.17	    10.050
  13.340         74.17	     9.434
  13.360         70.00	     9.165
  13.380         77.50	     9.644
  13.400         82.50	     9.950
  13.420         75.83	     9.539
  13.440         82.50	     9.950
  13.460         70.83	     9.220
  13.480         86.67	    10.198
  13.500         76.67	     9.592
  13.520         90.00	    10.392
  13.540         93.33	    10.583
  13.560         99.17	    10.909
  13.580         77.50	     9.644
  13.600         74.17	     9.434
  13.620         76.67	     9.592
  13.640         74.17	     9.434
  13.660         88.33	    10.296
  13.680         92.50	    10.536
  13.700         95.83	    10.724
  13.720        122.50	    12.124
  13.740        118.33	    11.916
  13.760        146.67	    13.266
  13.780        109.17	    11.446
  13.800         96.67	    10.770
  13.820         86.67	    10.198
  13.840        115.00	    11.747
  13.860         96.67	    10.770
  13.880         85.83	    10.149
  13.900         78.33	     9.695
  13.920         75.83	     9.539
  13.940         82.50	     9.950
  13.960         68.33	     9.055
  13.980         69.17	     9.110
  14.000         81.67	     9.899
  14.020         68.33	     9.055
  14.040         70.83	     9.220
  14.060         69.17	     9.110
  14.080         78.33	     9.695
  14.100         66.67	     8.944
  14.120         81.67	     9.899
  14.140         70.83	     9.220
  14.160         72.50	     9.327
  14.180         56.67	     8.246
  14.200         75.83	     9.539
  14.220         78.33	     9.695
  14.240         73.33	     9.381
  14.260         57.50	     8.307
  14.280         72.50	     9.327
  14.300         61.67	     8.602
  14.320         70.83	     9.220
  14.340         63.33	     8.718
  14.360         69.17	     9.110
  14.380         68.33	     9.055
  14.400         75.00	     9.487
