
Filename:
	C:\Program Files\Thermo Electron\WinXRD\Datafiles\F_HERMAN\GEO\G56_RT.raw

File Created:
	February 20, 2020 - 08:02 PM

Specimen Id:
	G56_RT

Specimen Name:
	

Specimen Description:
	

Comment:
Scan Type: 2Theta Scan
Start Angle: 3 deg.
Stop Angle: 65 deg.
Num Points: 3101
Step Size: 0.02 deg.
Scan Rate: 1.000000
Scan Mode: Continuous
Wavelength: 1.540562
\Kalpha1: 1.540562	\Kalpha2: 1.544390	\Kbeta: 1.392218

Optics:
		Detector:
			 Type: Fixed Slits
		Tube: 
			 Type: Fixed Slits


Datas:
 Pos [deg]       Rate [CPS]      ESD [-]

Range 1 ---> Iteration 1
   3.000        442.50	    23.043
   3.020        435.00	    22.847
   3.040        415.83	    22.338
   3.060        428.33	    22.672
   3.080        420.00	    22.450
   3.100        424.17	    22.561
   3.120        400.00	    21.909
   3.140        377.50	    21.284
   3.160        420.83	    22.472
   3.180        393.33	    21.726
   3.200        425.83	    22.605
   3.220        434.17	    22.825
   3.240        425.83	    22.605
   3.260        411.67	    22.226
   3.280        418.33	    22.405
   3.300        398.33	    21.863
   3.320        435.83	    22.869
   3.340        399.17	    21.886
   3.360        360.00	    20.785
   3.380        374.17	    21.190
   3.400        402.50	    21.977
   3.420        362.50	    20.857
   3.440        345.83	    20.372
   3.460        344.17	    20.322
   3.480        365.00	    20.928
   3.500        345.83	    20.372
   3.520        347.50	    20.421
   3.540        357.50	    20.712
   3.560        345.00	    20.347
   3.580        388.33	    21.587
   3.600        359.17	    20.761
   3.620        368.33	    21.024
   3.640        357.50	    20.712
   3.660        355.00	    20.640
   3.680        335.83	    20.075
   3.700        327.50	    19.824
   3.720        347.50	    20.421
   3.740        333.33	    20.000
   3.760        357.50	    20.712
   3.780        337.50	    20.125
   3.800        336.67	    20.100
   3.820        349.17	    20.469
   3.840        330.83	    19.925
   3.860        300.83	    19.000
   3.880        324.17	    19.723
   3.900        328.33	    19.849
   3.920        290.00	    18.655
   3.940        324.17	    19.723
   3.960        337.50	    20.125
   3.980        338.33	    20.149
   4.000        306.67	    19.183
   4.020        307.50	    19.209
   4.040        303.33	    19.079
   4.060        296.67	    18.868
   4.080        318.33	    19.545
   4.100        282.50	    18.412
   4.120        309.17	    19.261
   4.140        298.33	    18.921
   4.160        270.83	    18.028
   4.180        297.50	    18.894
   4.200        309.17	    19.261
   4.220        322.50	    19.672
   4.240        283.33	    18.439
   4.260        299.17	    18.947
   4.280        310.83	    19.313
   4.300        276.67	    18.221
   4.320        275.00	    18.166
   4.340        275.83	    18.193
   4.360        271.67	    18.055
   4.380        256.67	    17.550
   4.400        268.33	    17.944
   4.420        275.00	    18.166
   4.440        257.50	    17.578
   4.460        280.00	    18.330
   4.480        251.67	    17.378
   4.500        261.67	    17.720
   4.520        301.67	    19.026
   4.540        268.33	    17.944
   4.560        255.00	    17.493
   4.580        265.00	    17.833
   4.600        267.50	    17.916
   4.620        254.17	    17.464
   4.640        243.33	    17.088
   4.660        260.83	    17.692
   4.680        275.00	    18.166
   4.700        235.00	    16.793
   4.720        256.67	    17.550
   4.740        295.83	    18.841
   4.760        243.33	    17.088
   4.780        248.33	    17.263
   4.800        223.33	    16.371
   4.820        240.83	    17.000
   4.840        245.83	    17.176
   4.860        244.17	    17.117
   4.880        236.67	    16.852
   4.900        234.17	    16.763
   4.920        232.50	    16.703
   4.940        246.67	    17.205
   4.960        240.00	    16.971
   4.980        237.50	    16.882
   5.000        230.00	    16.613
   5.020        215.83	    16.093
   5.040        225.00	    16.432
   5.060        210.83	    15.906
   5.080        231.67	    16.673
   5.100        236.67	    16.852
   5.120        231.67	    16.673
   5.140        226.67	    16.492
   5.160        203.33	    15.620
   5.180        217.50	    16.155
   5.200        239.17	    16.941
   5.220        254.17	    17.464
   5.240        243.33	    17.088
   5.260        222.50	    16.340
   5.280        218.33	    16.186
   5.300        228.33	    16.553
   5.320        233.33	    16.733
   5.340        221.67	    16.310
   5.360        205.83	    15.716
   5.380        211.67	    15.937
   5.400        244.17	    17.117
   5.420        229.17	    16.583
   5.440        206.67	    15.748
   5.460        205.00	    15.684
   5.480        235.83	    16.823
   5.500        205.83	    15.716
   5.520        209.17	    15.843
   5.540        205.00	    15.684
   5.560        202.50	    15.588
   5.580        218.33	    16.186
   5.600        215.00	    16.062
   5.620        228.33	    16.553
   5.640        205.00	    15.684
   5.660        193.33	    15.232
   5.680        189.17	    15.067
   5.700        207.50	    15.780
   5.720        196.67	    15.362
   5.740        200.83	    15.524
   5.760        215.83	    16.093
   5.780        211.67	    15.937
   5.800        194.17	    15.264
   5.820        204.17	    15.652
   5.840        199.17	    15.460
   5.860        189.17	    15.067
   5.880        185.83	    14.933
   5.900        212.50	    15.969
   5.920        198.33	    15.427
   5.940        209.17	    15.843
   5.960        210.00	    15.875
   5.980        179.17	    14.663
   6.000        189.17	    15.067
   6.020        223.33	    16.371
   6.040        221.67	    16.310
   6.060        226.67	    16.492
   6.080        221.67	    16.310
   6.100        221.67	    16.310
   6.120        238.33	    16.912
   6.140        270.00	    18.000
   6.160        275.83	    18.193
   6.180        270.83	    18.028
   6.200        267.50	    17.916
   6.220        264.17	    17.804
   6.240        258.33	    17.607
   6.260        229.17	    16.583
   6.280        222.50	    16.340
   6.300        211.67	    15.937
   6.320        200.00	    15.492
   6.340        170.00	    14.283
   6.360        212.50	    15.969
   6.380        180.83	    14.731
   6.400        198.33	    15.427
   6.420        194.17	    15.264
   6.440        195.00	    15.297
   6.460        180.00	    14.697
   6.480        173.33	    14.422
   6.500        185.83	    14.933
   6.520        167.50	    14.177
   6.540        188.33	    15.033
   6.560        178.33	    14.629
   6.580        188.33	    15.033
   6.600        200.83	    15.524
   6.620        160.83	    13.892
   6.640        161.67	    13.928
   6.660        168.33	    14.213
   6.680        180.83	    14.731
   6.700        179.17	    14.663
   6.720        170.83	    14.318
   6.740        208.33	    15.811
   6.760        196.67	    15.362
   6.780        181.67	    14.765
   6.800        153.33	    13.565
   6.820        156.67	    13.711
   6.840        169.17	    14.248
   6.860        170.83	    14.318
   6.880        148.33	    13.342
   6.900        162.50	    13.964
   6.920        173.33	    14.422
   6.940        180.00	    14.697
   6.960        180.83	    14.731
   6.980        141.67	    13.038
   7.000        164.17	    14.036
   7.020        161.67	    13.928
   7.040        158.33	    13.784
   7.060        161.67	    13.928
   7.080        145.83	    13.229
   7.100        156.67	    13.711
   7.120        164.17	    14.036
   7.140        143.33	    13.115
   7.160        140.00	    12.961
   7.180        178.33	    14.629
   7.200        177.50	    14.595
   7.220        154.17	    13.601
   7.240        160.83	    13.892
   7.260        174.17	    14.457
   7.280        158.33	    13.784
   7.300        158.33	    13.784
   7.320        151.67	    13.491
   7.340        157.50	    13.748
   7.360        149.17	    13.379
   7.380        162.50	    13.964
   7.400        148.33	    13.342
   7.420        166.67	    14.142
   7.440        158.33	    13.784
   7.460        149.17	    13.379
   7.480        135.83	    12.767
   7.500        148.33	    13.342
   7.520        143.33	    13.115
   7.540        160.83	    13.892
   7.560        139.17	    12.923
   7.580        150.83	    13.454
   7.600        145.00	    13.191
   7.620        137.50	    12.845
   7.640        149.17	    13.379
   7.660        150.00	    13.416
   7.680        149.17	    13.379
   7.700        159.17	    13.820
   7.720        160.00	    13.856
   7.740        150.83	    13.454
   7.760        139.17	    12.923
   7.780        143.33	    13.115
   7.800        136.67	    12.806
   7.820        138.33	    12.884
   7.840        145.83	    13.229
   7.860        145.00	    13.191
   7.880        132.50	    12.610
   7.900        156.67	    13.711
   7.920        147.50	    13.304
   7.940        137.50	    12.845
   7.960        159.17	    13.820
   7.980        156.67	    13.711
   8.000        147.50	    13.304
   8.020        130.83	    12.530
   8.040        157.50	    13.748
   8.060        151.67	    13.491
   8.080        136.67	    12.806
   8.100        139.17	    12.923
   8.120        148.33	    13.342
   8.140        132.50	    12.610
   8.160        139.17	    12.923
   8.180        150.00	    13.416
   8.200        137.50	    12.845
   8.220        137.50	    12.845
   8.240        143.33	    13.115
   8.260        138.33	    12.884
   8.280        129.17	    12.450
   8.300        145.83	    13.229
   8.320        145.83	    13.229
   8.340        143.33	    13.115
   8.360        147.50	    13.304
   8.380        143.33	    13.115
   8.400        153.33	    13.565
   8.420        147.50	    13.304
   8.440        141.67	    13.038
   8.460        145.83	    13.229
   8.480        170.00	    14.283
   8.500        159.17	    13.820
   8.520        161.67	    13.928
   8.540        155.83	    13.675
   8.560        161.67	    13.928
   8.580        181.67	    14.765
   8.600        181.67	    14.765
   8.620        193.33	    15.232
   8.640        160.83	    13.892
   8.660        193.33	    15.232
   8.680        227.50	    16.523
   8.700        245.83	    17.176
   8.720        266.67	    17.889
   8.740        280.00	    18.330
   8.760        328.33	    19.849
   8.780        377.50	    21.284
   8.800        460.83	    23.516
   8.820        588.33	    26.571
   8.840        699.17	    28.965
   8.860        749.17	    29.983
   8.880        685.00	    28.671
   8.900        565.00	    26.038
   8.920        391.67	    21.679
   8.940        267.50	    17.916
   8.960        199.17	    15.460
   8.980        162.50	    13.964
   9.000        147.50	    13.304
   9.020        137.50	    12.845
   9.040        124.17	    12.207
   9.060        147.50	    13.304
   9.080        150.83	    13.454
   9.100        137.50	    12.845
   9.120        149.17	    13.379
   9.140        162.50	    13.964
   9.160        153.33	    13.565
   9.180        131.67	    12.570
   9.200        115.83	    11.790
   9.220        129.17	    12.450
   9.240        122.50	    12.124
   9.260        144.17	    13.153
   9.280        120.83	    12.042
   9.300        110.00	    11.489
   9.320        133.33	    12.649
   9.340        127.50	    12.369
   9.360        124.17	    12.207
   9.380        116.67	    11.832
   9.400        161.67	    13.928
   9.420        169.17	    14.248
   9.440        166.67	    14.142
   9.460        154.17	    13.601
   9.480        150.83	    13.454
   9.500        117.50	    11.874
   9.520        134.17	    12.689
   9.540        119.17	    11.958
   9.560        127.50	    12.369
   9.580        106.67	    11.314
   9.600         97.50	    10.817
   9.620        119.17	    11.958
   9.640         95.00	    10.677
   9.660        119.17	    11.958
   9.680        116.67	    11.832
   9.700        106.67	    11.314
   9.720        110.00	    11.489
   9.740        110.83	    11.533
   9.760        128.33	    12.410
   9.780        109.17	    11.446
   9.800        114.17	    11.705
   9.820        110.83	    11.533
   9.840        110.83	    11.533
   9.860        129.17	    12.450
   9.880         96.67	    10.770
   9.900        115.83	    11.790
   9.920        107.50	    11.358
   9.940        120.83	    12.042
   9.960         99.17	    10.909
   9.980        106.67	    11.314
  10.000        116.67	    11.832
  10.020        105.83	    11.269
  10.040        116.67	    11.832
  10.060         88.33	    10.296
  10.080         91.67	    10.488
  10.100        110.00	    11.489
  10.120        105.83	    11.269
  10.140        103.33	    11.136
  10.160        117.50	    11.874
  10.180        105.00	    11.225
  10.200        108.33	    11.402
  10.220        100.00	    10.954
  10.240        103.33	    11.136
  10.260         90.00	    10.392
  10.280        113.33	    11.662
  10.300         97.50	    10.817
  10.320        131.67	    12.570
  10.340        110.00	    11.489
  10.360        116.67	    11.832
  10.380        100.00	    10.954
  10.400        110.00	    11.489
  10.420        116.67	    11.832
  10.440        121.67	    12.083
  10.460        125.83	    12.288
  10.480        132.50	    12.610
  10.500        146.67	    13.266
  10.520        126.67	    12.329
  10.540        120.83	    12.042
  10.560        122.50	    12.124
  10.580        103.33	    11.136
  10.600        113.33	    11.662
  10.620         96.67	    10.770
  10.640        110.83	    11.533
  10.660         86.67	    10.198
  10.680        113.33	    11.662
  10.700         91.67	    10.488
  10.720        114.17	    11.705
  10.740         95.83	    10.724
  10.760         92.50	    10.536
  10.780        100.83	    11.000
  10.800        110.83	    11.533
  10.820        100.00	    10.954
  10.840        110.00	    11.489
  10.860         92.50	    10.536
  10.880        104.17	    11.180
  10.900         95.83	    10.724
  10.920         97.50	    10.817
  10.940        104.17	    11.180
  10.960        104.17	    11.180
  10.980        109.17	    11.446
  11.000        100.83	    11.000
  11.020        101.67	    11.045
  11.040        111.67	    11.576
  11.060         83.33	    10.000
  11.080         90.00	    10.392
  11.100         91.67	    10.488
  11.120         81.67	     9.899
  11.140         83.33	    10.000
  11.160         86.67	    10.198
  11.180         92.50	    10.536
  11.200         90.00	    10.392
  11.220         72.50	     9.327
  11.240         75.00	     9.487
  11.260        101.67	    11.045
  11.280         88.33	    10.296
  11.300        101.67	    11.045
  11.320        110.83	    11.533
  11.340         89.17	    10.344
  11.360         88.33	    10.296
  11.380         88.33	    10.296
  11.400         85.83	    10.149
  11.420         82.50	     9.950
  11.440        101.67	    11.045
  11.460         82.50	     9.950
  11.480         92.50	    10.536
  11.500         87.50	    10.247
  11.520         95.00	    10.677
  11.540         88.33	    10.296
  11.560         80.83	     9.849
  11.580         96.67	    10.770
  11.600         93.33	    10.583
  11.620         93.33	    10.583
  11.640        100.83	    11.000
  11.660         95.83	    10.724
  11.680         96.67	    10.770
  11.700         80.83	     9.849
  11.720        111.67	    11.576
  11.740         93.33	    10.583
  11.760         87.50	    10.247
  11.780        104.17	    11.180
  11.800         84.17	    10.050
  11.820         95.83	    10.724
  11.840         82.50	     9.950
  11.860        109.17	    11.446
  11.880         90.83	    10.440
  11.900         85.83	    10.149
  11.920         76.67	     9.592
  11.940        100.83	    11.000
  11.960         94.17	    10.630
  11.980         95.83	    10.724
  12.000        101.67	    11.045
  12.020        108.33	    11.402
  12.040        122.50	    12.124
  12.060        134.17	    12.689
  12.080        150.83	    13.454
  12.100        150.83	    13.454
  12.120        192.50	    15.199
  12.140        192.50	    15.199
  12.160        235.00	    16.793
  12.180        252.50	    17.407
  12.200        235.00	    16.793
  12.220        215.00	    16.062
  12.240        168.33	    14.213
  12.260        167.50	    14.177
  12.280        150.83	    13.454
  12.300        185.00	    14.900
  12.320        179.17	    14.663
  12.340        162.50	    13.964
  12.360        184.17	    14.866
  12.380        167.50	    14.177
  12.400        200.00	    15.492
  12.420        266.67	    17.889
  12.440        341.67	    20.248
  12.460        352.50	    20.567
  12.480        380.83	    21.378
  12.500        325.83	    19.774
  12.520        270.00	    18.000
  12.540        211.67	    15.937
  12.560        138.33	    12.884
  12.580        113.33	    11.662
  12.600         84.17	    10.050
  12.620        100.83	    11.000
  12.640        105.83	    11.269
  12.660         87.50	    10.247
  12.680        102.50	    11.091
  12.700         94.17	    10.630
  12.720        100.00	    10.954
  12.740         95.00	    10.677
  12.760         92.50	    10.536
  12.780         82.50	     9.950
  12.800         89.17	    10.344
  12.820         81.67	     9.899
  12.840         91.67	    10.488
  12.860         90.00	    10.392
  12.880         97.50	    10.817
  12.900         81.67	     9.899
  12.920         83.33	    10.000
  12.940         86.67	    10.198
  12.960         86.67	    10.198
  12.980         91.67	    10.488
  13.000         90.00	    10.392
  13.020         70.83	     9.220
  13.040         81.67	     9.899
  13.060         76.67	     9.592
  13.080         78.33	     9.695
  13.100         86.67	    10.198
  13.120         80.83	     9.849
  13.140         95.00	    10.677
  13.160         73.33	     9.381
  13.180         74.17	     9.434
  13.200         80.00	     9.798
  13.220         94.17	    10.630
  13.240         72.50	     9.327
  13.260         81.67	     9.899
  13.280         72.50	     9.327
  13.300        105.83	    11.269
  13.320         80.00	     9.798
  13.340         92.50	    10.536
  13.360         73.33	     9.381
  13.380         80.00	     9.798
  13.400         85.83	    10.149
  13.420         79.17	     9.747
  13.440         73.33	     9.381
  13.460         76.67	     9.592
  13.480         80.00	     9.798
  13.500         91.67	    10.488
  13.520         85.00	    10.100
  13.540         71.67	     9.274
  13.560         65.83	     8.888
  13.580         90.83	    10.440
  13.600         86.67	    10.198
  13.620         80.00	     9.798
  13.640        105.83	    11.269
  13.660         95.83	    10.724
  13.680         81.67	     9.899
  13.700         81.67	     9.899
  13.720         73.33	     9.381
  13.740         95.83	    10.724
  13.760        109.17	    11.446
  13.780         90.00	    10.392
  13.800        161.67	    13.928
  13.820        205.83	    15.716
  13.840        195.83	    15.330
  13.860        180.00	    14.697
  13.880        136.67	    12.806
  13.900        100.83	    11.000
  13.920         88.33	    10.296
  13.940         85.83	    10.149
  13.960         73.33	     9.381
  13.980         85.83	    10.149
  14.000         67.50	     9.000
  14.020         84.17	    10.050
  14.040         68.33	     9.055
  14.060         70.83	     9.220
  14.080         74.17	     9.434
  14.100         69.17	     9.110
  14.120         78.33	     9.695
  14.140         65.00	     8.832
  14.160         66.67	     8.944
  14.180         66.67	     8.944
  14.200         75.00	     9.487
  14.220         68.33	     9.055
  14.240         73.33	     9.381
  14.260         85.83	    10.149
  14.280         75.83	     9.539
  14.300         72.50	     9.327
  14.320         74.17	     9.434
  14.340         81.67	     9.899
  14.360         68.33	     9.055
  14.380         70.83	     9.220
  14.400         70.83	     9.220
