
Filename:
	C:\Program Files\Thermo Electron\WinXRD\Datafiles\F_HERMAN\GEO\G57_RT.raw

File Created:
	February 19, 2020 - 02:30 AM

Specimen Id:
	G57_RT

Specimen Name:
	

Specimen Description:
	

Comment:
Scan Type: 2Theta Scan
Start Angle: 3 deg.
Stop Angle: 65 deg.
Num Points: 3101
Step Size: 0.02 deg.
Scan Rate: 1.000000
Scan Mode: Continuous
Wavelength: 1.540562
\Kalpha1: 1.540562	\Kalpha2: 1.544390	\Kbeta: 1.392218

Optics:
		Detector:
			 Type: Fixed Slits
		Tube: 
			 Type: Fixed Slits


Datas:
 Pos [deg]       Rate [CPS]      ESD [-]

Range 1 ---> Iteration 1
   3.000        409.17	    22.159
   3.020        460.00	    23.495
   3.040        450.83	    23.259
   3.060        434.17	    22.825
   3.080        433.33	    22.804
   3.100        418.33	    22.405
   3.120        426.67	    22.627
   3.140        428.33	    22.672
   3.160        393.33	    21.726
   3.180        392.50	    21.703
   3.200        393.33	    21.726
   3.220        410.83	    22.204
   3.240        393.33	    21.726
   3.260        390.00	    21.633
   3.280        404.17	    22.023
   3.300        395.00	    21.772
   3.320        377.50	    21.284
   3.340        438.33	    22.935
   3.360        395.00	    21.772
   3.380        374.17	    21.190
   3.400        368.33	    21.024
   3.420        387.50	    21.564
   3.440        353.33	    20.591
   3.460        345.83	    20.372
   3.480        358.33	    20.736
   3.500        378.33	    21.307
   3.520        370.83	    21.095
   3.540        365.00	    20.928
   3.560        370.00	    21.071
   3.580        370.83	    21.095
   3.600        356.67	    20.688
   3.620        331.67	    19.950
   3.640        364.17	    20.905
   3.660        348.33	    20.445
   3.680        290.83	    18.682
   3.700        345.00	    20.347
   3.720        355.00	    20.640
   3.740        347.50	    20.421
   3.760        355.00	    20.640
   3.780        330.00	    19.900
   3.800        343.33	    20.298
   3.820        333.33	    20.000
   3.840        348.33	    20.445
   3.860        310.00	    19.287
   3.880        347.50	    20.421
   3.900        332.50	    19.975
   3.920        330.00	    19.900
   3.940        331.67	    19.950
   3.960        312.50	    19.365
   3.980        311.67	    19.339
   4.000        274.17	    18.138
   4.020        308.33	    19.235
   4.040        285.00	    18.493
   4.060        315.00	    19.442
   4.080        290.00	    18.655
   4.100        295.00	    18.815
   4.120        313.33	    19.391
   4.140        302.50	    19.053
   4.160        293.33	    18.762
   4.180        304.17	    19.105
   4.200        299.17	    18.947
   4.220        301.67	    19.026
   4.240        280.00	    18.330
   4.260        301.67	    19.026
   4.280        306.67	    19.183
   4.300        316.67	    19.494
   4.320        305.83	    19.157
   4.340        283.33	    18.439
   4.360        281.67	    18.385
   4.380        267.50	    17.916
   4.400        299.17	    18.947
   4.420        275.83	    18.193
   4.440        288.33	    18.601
   4.460        250.83	    17.349
   4.480        264.17	    17.804
   4.500        270.83	    18.028
   4.520        276.67	    18.221
   4.540        280.83	    18.358
   4.560        249.17	    17.292
   4.580        265.00	    17.833
   4.600        262.50	    17.748
   4.620        266.67	    17.889
   4.640        285.83	    18.520
   4.660        271.67	    18.055
   4.680        267.50	    17.916
   4.700        223.33	    16.371
   4.720        243.33	    17.088
   4.740        279.17	    18.303
   4.760        278.33	    18.276
   4.780        249.17	    17.292
   4.800        243.33	    17.088
   4.820        282.50	    18.412
   4.840        262.50	    17.748
   4.860        253.33	    17.436
   4.880        229.17	    16.583
   4.900        240.00	    16.971
   4.920        228.33	    16.553
   4.940        261.67	    17.720
   4.960        245.00	    17.146
   4.980        220.00	    16.248
   5.000        245.83	    17.176
   5.020        243.33	    17.088
   5.040        215.00	    16.062
   5.060        240.83	    17.000
   5.080        223.33	    16.371
   5.100        258.33	    17.607
   5.120        240.83	    17.000
   5.140        250.83	    17.349
   5.160        246.67	    17.205
   5.180        233.33	    16.733
   5.200        216.67	    16.125
   5.220        231.67	    16.673
   5.240        215.00	    16.062
   5.260        230.00	    16.613
   5.280        240.83	    17.000
   5.300        208.33	    15.811
   5.320        225.83	    16.462
   5.340        239.17	    16.941
   5.360        217.50	    16.155
   5.380        213.33	    16.000
   5.400        220.83	    16.279
   5.420        222.50	    16.340
   5.440        222.50	    16.340
   5.460        207.50	    15.780
   5.480        223.33	    16.371
   5.500        228.33	    16.553
   5.520        216.67	    16.125
   5.540        240.83	    17.000
   5.560        233.33	    16.733
   5.580        253.33	    17.436
   5.600        230.00	    16.613
   5.620        207.50	    15.780
   5.640        225.00	    16.432
   5.660        209.17	    15.843
   5.680        196.67	    15.362
   5.700        195.83	    15.330
   5.720        202.50	    15.588
   5.740        222.50	    16.340
   5.760        203.33	    15.620
   5.780        206.67	    15.748
   5.800        220.00	    16.248
   5.820        204.17	    15.652
   5.840        227.50	    16.523
   5.860        197.50	    15.395
   5.880        204.17	    15.652
   5.900        212.50	    15.969
   5.920        232.50	    16.703
   5.940        227.50	    16.523
   5.960        240.83	    17.000
   5.980        212.50	    15.969
   6.000        225.00	    16.432
   6.020        199.17	    15.460
   6.040        233.33	    16.733
   6.060        232.50	    16.703
   6.080        227.50	    16.523
   6.100        245.83	    17.176
   6.120        239.17	    16.941
   6.140        275.83	    18.193
   6.160        223.33	    16.371
   6.180        244.17	    17.117
   6.200        245.00	    17.146
   6.220        215.83	    16.093
   6.240        195.83	    15.330
   6.260        185.83	    14.933
   6.280        197.50	    15.395
   6.300        197.50	    15.395
   6.320        215.83	    16.093
   6.340        190.83	    15.133
   6.360        194.17	    15.264
   6.380        190.00	    15.100
   6.400        205.83	    15.716
   6.420        203.33	    15.620
   6.440        165.00	    14.071
   6.460        180.00	    14.697
   6.480        182.50	    14.799
   6.500        172.50	    14.387
   6.520        176.67	    14.560
   6.540        179.17	    14.663
   6.560        168.33	    14.213
   6.580        186.67	    14.967
   6.600        191.67	    15.166
   6.620        188.33	    15.033
   6.640        201.67	    15.556
   6.660        197.50	    15.395
   6.680        190.83	    15.133
   6.700        195.00	    15.297
   6.720        165.00	    14.071
   6.740        195.00	    15.297
   6.760        182.50	    14.799
   6.780        183.33	    14.832
   6.800        179.17	    14.663
   6.820        170.83	    14.318
   6.840        171.67	    14.353
   6.860        166.67	    14.142
   6.880        175.00	    14.491
   6.900        198.33	    15.427
   6.920        171.67	    14.353
   6.940        185.83	    14.933
   6.960        180.00	    14.697
   6.980        162.50	    13.964
   7.000        152.50	    13.528
   7.020        165.83	    14.107
   7.040        181.67	    14.765
   7.060        175.83	    14.526
   7.080        161.67	    13.928
   7.100        149.17	    13.379
   7.120        158.33	    13.784
   7.140        177.50	    14.595
   7.160        175.00	    14.491
   7.180        158.33	    13.784
   7.200        165.83	    14.107
   7.220        144.17	    13.153
   7.240        147.50	    13.304
   7.260        159.17	    13.820
   7.280        188.33	    15.033
   7.300        155.00	    13.638
   7.320        154.17	    13.601
   7.340        173.33	    14.422
   7.360        155.83	    13.675
   7.380        170.83	    14.318
   7.400        145.00	    13.191
   7.420        161.67	    13.928
   7.440        145.00	    13.191
   7.460        149.17	    13.379
   7.480        132.50	    12.610
   7.500        141.67	    13.038
   7.520        149.17	    13.379
   7.540        155.83	    13.675
   7.560        144.17	    13.153
   7.580        172.50	    14.387
   7.600        155.00	    13.638
   7.620        150.00	    13.416
   7.640        146.67	    13.266
   7.660        145.83	    13.229
   7.680        141.67	    13.038
   7.700        134.17	    12.689
   7.720        155.83	    13.675
   7.740        153.33	    13.565
   7.760        164.17	    14.036
   7.780        115.00	    11.747
   7.800        145.83	    13.229
   7.820        151.67	    13.491
   7.840        142.50	    13.077
   7.860        153.33	    13.565
   7.880        137.50	    12.845
   7.900        137.50	    12.845
   7.920        140.00	    12.961
   7.940        143.33	    13.115
   7.960        142.50	    13.077
   7.980        150.00	    13.416
   8.000        144.17	    13.153
   8.020        135.00	    12.728
   8.040        142.50	    13.077
   8.060        138.33	    12.884
   8.080        150.00	    13.416
   8.100        132.50	    12.610
   8.120        155.83	    13.675
   8.140        137.50	    12.845
   8.160        140.00	    12.961
   8.180        163.33	    14.000
   8.200        132.50	    12.610
   8.220        142.50	    13.077
   8.240        138.33	    12.884
   8.260        133.33	    12.649
   8.280        137.50	    12.845
   8.300        147.50	    13.304
   8.320        153.33	    13.565
   8.340        160.83	    13.892
   8.360        140.83	    13.000
   8.380        135.83	    12.767
   8.400        148.33	    13.342
   8.420        155.00	    13.638
   8.440        149.17	    13.379
   8.460        140.00	    12.961
   8.480        135.83	    12.767
   8.500        155.00	    13.638
   8.520        180.83	    14.731
   8.540        160.83	    13.892
   8.560        177.50	    14.595
   8.580        140.83	    13.000
   8.600        202.50	    15.588
   8.620        169.17	    14.248
   8.640        202.50	    15.588
   8.660        201.67	    15.556
   8.680        217.50	    16.155
   8.700        235.00	    16.793
   8.720        266.67	    17.889
   8.740        298.33	    18.921
   8.760        366.67	    20.976
   8.780        448.33	    23.195
   8.800        438.33	    22.935
   8.820        444.17	    23.087
   8.840        329.17	    19.875
   8.860        229.17	    16.583
   8.880        188.33	    15.033
   8.900        150.00	    13.416
   8.920        146.67	    13.266
   8.940        146.67	    13.266
   8.960        130.83	    12.530
   8.980        132.50	    12.610
   9.000        150.83	    13.454
   9.020        117.50	    11.874
   9.040        126.67	    12.329
   9.060        138.33	    12.884
   9.080        120.83	    12.042
   9.100        140.83	    13.000
   9.120        115.83	    11.790
   9.140        117.50	    11.874
   9.160        129.17	    12.450
   9.180        125.00	    12.247
   9.200        132.50	    12.610
   9.220        129.17	    12.450
   9.240        125.00	    12.247
   9.260        113.33	    11.662
   9.280        115.83	    11.790
   9.300        115.83	    11.790
   9.320        126.67	    12.329
   9.340        115.83	    11.790
   9.360        122.50	    12.124
   9.380        128.33	    12.410
   9.400        142.50	    13.077
   9.420        115.00	    11.747
   9.440        129.17	    12.450
   9.460        127.50	    12.369
   9.480        119.17	    11.958
   9.500        106.67	    11.314
   9.520        129.17	    12.450
   9.540        121.67	    12.083
   9.560        102.50	    11.091
   9.580        127.50	    12.369
   9.600        110.83	    11.533
   9.620         99.17	    10.909
   9.640        110.83	    11.533
   9.660        108.33	    11.402
   9.680        104.17	    11.180
   9.700        109.17	    11.446
   9.720        123.33	    12.166
   9.740        118.33	    11.916
   9.760         96.67	    10.770
   9.780        128.33	    12.410
   9.800        125.83	    12.288
   9.820        113.33	    11.662
   9.840        114.17	    11.705
   9.860        115.83	    11.790
   9.880        115.83	    11.790
   9.900        120.00	    12.000
   9.920        104.17	    11.180
   9.940        121.67	    12.083
   9.960        105.83	    11.269
   9.980        108.33	    11.402
  10.000        100.83	    11.000
  10.020        119.17	    11.958
  10.040        130.00	    12.490
  10.060        113.33	    11.662
  10.080         99.17	    10.909
  10.100         95.00	    10.677
  10.120        122.50	    12.124
  10.140         93.33	    10.583
  10.160        110.00	    11.489
  10.180        110.00	    11.489
  10.200        115.00	    11.747
  10.220        107.50	    11.358
  10.240        111.67	    11.576
  10.260         96.67	    10.770
  10.280        105.00	    11.225
  10.300        109.17	    11.446
  10.320        110.83	    11.533
  10.340        119.17	    11.958
  10.360        113.33	    11.662
  10.380        116.67	    11.832
  10.400        103.33	    11.136
  10.420        119.17	    11.958
  10.440        121.67	    12.083
  10.460        110.00	    11.489
  10.480        108.33	    11.402
  10.500        118.33	    11.916
  10.520        118.33	    11.916
  10.540        108.33	    11.402
  10.560         97.50	    10.817
  10.580         99.17	    10.909
  10.600         95.00	    10.677
  10.620         91.67	    10.488
  10.640        101.67	    11.045
  10.660         65.83	     8.888
  10.680         95.00	    10.677
  10.700         97.50	    10.817
  10.720        113.33	    11.662
  10.740         93.33	    10.583
  10.760         96.67	    10.770
  10.780         90.83	    10.440
  10.800         99.17	    10.909
  10.820         85.00	    10.100
  10.840         95.00	    10.677
  10.860         95.00	    10.677
  10.880        100.00	    10.954
  10.900         94.17	    10.630
  10.920        115.00	    11.747
  10.940         94.17	    10.630
  10.960         98.33	    10.863
  10.980         93.33	    10.583
  11.000         97.50	    10.817
  11.020         97.50	    10.817
  11.040         80.83	     9.849
  11.060         90.00	    10.392
  11.080         92.50	    10.536
  11.100        103.33	    11.136
  11.120        102.50	    11.091
  11.140         91.67	    10.488
  11.160        102.50	    11.091
  11.180         80.83	     9.849
  11.200         88.33	    10.296
  11.220         90.83	    10.440
  11.240        108.33	    11.402
  11.260        107.50	    11.358
  11.280         87.50	    10.247
  11.300         80.00	     9.798
  11.320         95.83	    10.724
  11.340         90.00	    10.392
  11.360         85.83	    10.149
  11.380         96.67	    10.770
  11.400         92.50	    10.536
  11.420         85.83	    10.149
  11.440         76.67	     9.592
  11.460         91.67	    10.488
  11.480         99.17	    10.909
  11.500         94.17	    10.630
  11.520         87.50	    10.247
  11.540         96.67	    10.770
  11.560         70.83	     9.220
  11.580        113.33	    11.662
  11.600         95.83	    10.724
  11.620         90.83	    10.440
  11.640         86.67	    10.198
  11.660        102.50	    11.091
  11.680         95.83	    10.724
  11.700        104.17	    11.180
  11.720         91.67	    10.488
  11.740        100.83	    11.000
  11.760        101.67	    11.045
  11.780         83.33	    10.000
  11.800         90.00	    10.392
  11.820        107.50	    11.358
  11.840        105.83	    11.269
  11.860        100.00	    10.954
  11.880         89.17	    10.344
  11.900        104.17	    11.180
  11.920         90.83	    10.440
  11.940        104.17	    11.180
  11.960         94.17	    10.630
  11.980        116.67	    11.832
  12.000        124.17	    12.207
  12.020        120.00	    12.000
  12.040        133.33	    12.649
  12.060        184.17	    14.866
  12.080        241.67	    17.029
  12.100        293.33	    18.762
  12.120        341.67	    20.248
  12.140        293.33	    18.762
  12.160        231.67	    16.673
  12.180        152.50	    13.528
  12.200        149.17	    13.379
  12.220        137.50	    12.845
  12.240        160.00	    13.856
  12.260        162.50	    13.964
  12.280        161.67	    13.928
  12.300        161.67	    13.928
  12.320        179.17	    14.663
  12.340        160.83	    13.892
  12.360        172.50	    14.387
  12.380        195.83	    15.330
  12.400        231.67	    16.673
  12.420        233.33	    16.733
  12.440        249.17	    17.292
  12.460        188.33	    15.033
  12.480        184.17	    14.866
  12.500        131.67	    12.570
  12.520        108.33	    11.402
  12.540        105.00	    11.225
  12.560        104.17	    11.180
  12.580        100.83	    11.000
  12.600         96.67	    10.770
  12.620         95.83	    10.724
  12.640         82.50	     9.950
  12.660         74.17	     9.434
  12.680        104.17	    11.180
  12.700         90.00	    10.392
  12.720         78.33	     9.695
  12.740         89.17	    10.344
  12.760         88.33	    10.296
  12.780         89.17	    10.344
  12.800         75.83	     9.539
  12.820         58.33	     8.367
  12.840        110.83	    11.533
  12.860         81.67	     9.899
  12.880         87.50	    10.247
  12.900         86.67	    10.198
  12.920         86.67	    10.198
  12.940         86.67	    10.198
  12.960         82.50	     9.950
  12.980         80.00	     9.798
  13.000         83.33	    10.000
  13.020         80.00	     9.798
  13.040         85.83	    10.149
  13.060        101.67	    11.045
  13.080         88.33	    10.296
  13.100         80.00	     9.798
  13.120         71.67	     9.274
  13.140         82.50	     9.950
  13.160         85.83	    10.149
  13.180         80.00	     9.798
  13.200         80.83	     9.849
  13.220         81.67	     9.899
  13.240         77.50	     9.644
  13.260         77.50	     9.644
  13.280         75.83	     9.539
  13.300         80.83	     9.849
  13.320         81.67	     9.899
  13.340         79.17	     9.747
  13.360         84.17	    10.050
  13.380        100.00	    10.954
  13.400         99.17	    10.909
  13.420         71.67	     9.274
  13.440         70.83	     9.220
  13.460         99.17	    10.909
  13.480         77.50	     9.644
  13.500         65.00	     8.832
  13.520         89.17	    10.344
  13.540         77.50	     9.644
  13.560         87.50	    10.247
  13.580         83.33	    10.000
  13.600         98.33	    10.863
  13.620         79.17	     9.747
  13.640         75.00	     9.487
  13.660         70.00	     9.165
  13.680         60.83	     8.544
  13.700         91.67	    10.488
  13.720         93.33	    10.583
  13.740         86.67	    10.198
  13.760         97.50	    10.817
  13.780        113.33	    11.662
  13.800        115.83	    11.790
  13.820         83.33	    10.000
  13.840         99.17	    10.909
  13.860        124.17	    12.207
  13.880        135.00	    12.728
  13.900        150.83	    13.454
  13.920        136.67	    12.806
  13.940         92.50	    10.536
  13.960         86.67	    10.198
  13.980         81.67	     9.899
  14.000         76.67	     9.592
  14.020         84.17	    10.050
  14.040         84.17	    10.050
  14.060         62.50	     8.660
  14.080         75.00	     9.487
  14.100         78.33	     9.695
  14.120         75.83	     9.539
  14.140         75.00	     9.487
  14.160         55.00	     8.124
  14.180         69.17	     9.110
  14.200         72.50	     9.327
  14.220         90.00	    10.392
  14.240         60.00	     8.485
  14.260         65.00	     8.832
  14.280         83.33	    10.000
  14.300         68.33	     9.055
  14.320         70.00	     9.165
  14.340         54.17	     8.062
  14.360         67.50	     9.000
  14.380         62.50	     8.660
  14.400         72.50	     9.327
