
Filename:
	C:\Program Files\Thermo Electron\WinXRD\Datafiles\F_HERMAN\GEO\G59_RT.raw

File Created:
	February 19, 2020 - 10:54 PM

Specimen Id:
	G59_RT

Specimen Name:
	

Specimen Description:
	

Comment:
Scan Type: 2Theta Scan
Start Angle: 3 deg.
Stop Angle: 65 deg.
Num Points: 3101
Step Size: 0.02 deg.
Scan Rate: 1.000000
Scan Mode: Continuous
Wavelength: 1.540562
\Kalpha1: 1.540562	\Kalpha2: 1.544390	\Kbeta: 1.392218

Optics:
		Detector:
			 Type: Fixed Slits
		Tube: 
			 Type: Fixed Slits


Datas:
 Pos [deg]       Rate [CPS]      ESD [-]

Range 1 ---> Iteration 1
   3.000        408.33	    22.136
   3.020        457.50	    23.431
   3.040        420.00	    22.450
   3.060        413.33	    22.271
   3.080        445.83	    23.130
   3.100        399.17	    21.886
   3.120        402.50	    21.977
   3.140        386.67	    21.541
   3.160        389.17	    21.610
   3.180        407.50	    22.113
   3.200        422.50	    22.517
   3.220        393.33	    21.726
   3.240        396.67	    21.817
   3.260        401.67	    21.954
   3.280        382.50	    21.424
   3.300        375.83	    21.237
   3.320        393.33	    21.726
   3.340        378.33	    21.307
   3.360        350.00	    20.494
   3.380        311.67	    19.339
   3.400        360.00	    20.785
   3.420        370.83	    21.095
   3.440        358.33	    20.736
   3.460        357.50	    20.712
   3.480        364.17	    20.905
   3.500        359.17	    20.761
   3.520        361.67	    20.833
   3.540        350.00	    20.494
   3.560        352.50	    20.567
   3.580        354.17	    20.616
   3.600        354.17	    20.616
   3.620        329.17	    19.875
   3.640        361.67	    20.833
   3.660        374.17	    21.190
   3.680        323.33	    19.698
   3.700        353.33	    20.591
   3.720        315.00	    19.442
   3.740        325.83	    19.774
   3.760        328.33	    19.849
   3.780        327.50	    19.824
   3.800        364.17	    20.905
   3.820        339.17	    20.174
   3.840        331.67	    19.950
   3.860        316.67	    19.494
   3.880        337.50	    20.125
   3.900        322.50	    19.672
   3.920        342.50	    20.273
   3.940        315.00	    19.442
   3.960        305.00	    19.131
   3.980        325.83	    19.774
   4.000        331.67	    19.950
   4.020        305.00	    19.131
   4.040        300.83	    19.000
   4.060        296.67	    18.868
   4.080        325.00	    19.748
   4.100        315.00	    19.442
   4.120        294.17	    18.788
   4.140        280.00	    18.330
   4.160        319.17	    19.570
   4.180        299.17	    18.947
   4.200        303.33	    19.079
   4.220        301.67	    19.026
   4.240        280.00	    18.330
   4.260        319.17	    19.570
   4.280        328.33	    19.849
   4.300        299.17	    18.947
   4.320        286.67	    18.547
   4.340        329.17	    19.875
   4.360        288.33	    18.601
   4.380        285.83	    18.520
   4.400        297.50	    18.894
   4.420        304.17	    19.105
   4.440        290.00	    18.655
   4.460        285.83	    18.520
   4.480        271.67	    18.055
   4.500        298.33	    18.921
   4.520        285.00	    18.493
   4.540        265.83	    17.861
   4.560        305.00	    19.131
   4.580        241.67	    17.029
   4.600        255.00	    17.493
   4.620        298.33	    18.921
   4.640        279.17	    18.303
   4.660        287.50	    18.574
   4.680        270.00	    18.000
   4.700        291.67	    18.708
   4.720        251.67	    17.378
   4.740        267.50	    17.916
   4.760        253.33	    17.436
   4.780        251.67	    17.378
   4.800        250.00	    17.321
   4.820        276.67	    18.221
   4.840        267.50	    17.916
   4.860        275.83	    18.193
   4.880        244.17	    17.117
   4.900        221.67	    16.310
   4.920        255.83	    17.521
   4.940        250.00	    17.321
   4.960        254.17	    17.464
   4.980        255.83	    17.521
   5.000        260.83	    17.692
   5.020        250.00	    17.321
   5.040        263.33	    17.776
   5.060        257.50	    17.578
   5.080        250.00	    17.321
   5.100        259.17	    17.635
   5.120        249.17	    17.292
   5.140        223.33	    16.371
   5.160        240.83	    17.000
   5.180        205.83	    15.716
   5.200        234.17	    16.763
   5.220        230.00	    16.613
   5.240        239.17	    16.941
   5.260        242.50	    17.059
   5.280        223.33	    16.371
   5.300        246.67	    17.205
   5.320        217.50	    16.155
   5.340        220.83	    16.279
   5.360        235.83	    16.823
   5.380        203.33	    15.620
   5.400        215.83	    16.093
   5.420        181.67	    14.765
   5.440        214.17	    16.031
   5.460        248.33	    17.263
   5.480        200.83	    15.524
   5.500        205.00	    15.684
   5.520        219.17	    16.217
   5.540        231.67	    16.673
   5.560        232.50	    16.703
   5.580        205.83	    15.716
   5.600        213.33	    16.000
   5.620        211.67	    15.937
   5.640        201.67	    15.556
   5.660        222.50	    16.340
   5.680        233.33	    16.733
   5.700        215.00	    16.062
   5.720        223.33	    16.371
   5.740        212.50	    15.969
   5.760        223.33	    16.371
   5.780        204.17	    15.652
   5.800        195.00	    15.297
   5.820        244.17	    17.117
   5.840        228.33	    16.553
   5.860        191.67	    15.166
   5.880        213.33	    16.000
   5.900        205.00	    15.684
   5.920        211.67	    15.937
   5.940        218.33	    16.186
   5.960        186.67	    14.967
   5.980        197.50	    15.395
   6.000        220.83	    16.279
   6.020        215.83	    16.093
   6.040        221.67	    16.310
   6.060        214.17	    16.031
   6.080        222.50	    16.340
   6.100        225.00	    16.432
   6.120        214.17	    16.031
   6.140        227.50	    16.523
   6.160        210.00	    15.875
   6.180        224.17	    16.401
   6.200        188.33	    15.033
   6.220        204.17	    15.652
   6.240        194.17	    15.264
   6.260        193.33	    15.232
   6.280        196.67	    15.362
   6.300        187.50	    15.000
   6.320        201.67	    15.556
   6.340        187.50	    15.000
   6.360        200.00	    15.492
   6.380        181.67	    14.765
   6.400        185.83	    14.933
   6.420        183.33	    14.832
   6.440        169.17	    14.248
   6.460        188.33	    15.033
   6.480        163.33	    14.000
   6.500        187.50	    15.000
   6.520        205.83	    15.716
   6.540        188.33	    15.033
   6.560        171.67	    14.353
   6.580        185.00	    14.900
   6.600        207.50	    15.780
   6.620        175.00	    14.491
   6.640        180.83	    14.731
   6.660        171.67	    14.353
   6.680        160.83	    13.892
   6.700        181.67	    14.765
   6.720        173.33	    14.422
   6.740        188.33	    15.033
   6.760        185.83	    14.933
   6.780        192.50	    15.199
   6.800        159.17	    13.820
   6.820        180.83	    14.731
   6.840        189.17	    15.067
   6.860        190.83	    15.133
   6.880        171.67	    14.353
   6.900        151.67	    13.491
   6.920        167.50	    14.177
   6.940        160.00	    13.856
   6.960        184.17	    14.866
   6.980        175.83	    14.526
   7.000        187.50	    15.000
   7.020        185.00	    14.900
   7.040        183.33	    14.832
   7.060        190.00	    15.100
   7.080        165.83	    14.107
   7.100        140.83	    13.000
   7.120        172.50	    14.387
   7.140        168.33	    14.213
   7.160        169.17	    14.248
   7.180        165.83	    14.107
   7.200        178.33	    14.629
   7.220        161.67	    13.928
   7.240        168.33	    14.213
   7.260        185.83	    14.933
   7.280        162.50	    13.964
   7.300        174.17	    14.457
   7.320        171.67	    14.353
   7.340        184.17	    14.866
   7.360        165.83	    14.107
   7.380        162.50	    13.964
   7.400        169.17	    14.248
   7.420        172.50	    14.387
   7.440        159.17	    13.820
   7.460        184.17	    14.866
   7.480        160.00	    13.856
   7.500        159.17	    13.820
   7.520        168.33	    14.213
   7.540        162.50	    13.964
   7.560        159.17	    13.820
   7.580        145.00	    13.191
   7.600        145.00	    13.191
   7.620        181.67	    14.765
   7.640        168.33	    14.213
   7.660        165.83	    14.107
   7.680        155.00	    13.638
   7.700        168.33	    14.213
   7.720        155.00	    13.638
   7.740        137.50	    12.845
   7.760        152.50	    13.528
   7.780        161.67	    13.928
   7.800        160.83	    13.892
   7.820        165.83	    14.107
   7.840        135.83	    12.767
   7.860        166.67	    14.142
   7.880        145.83	    13.229
   7.900        150.83	    13.454
   7.920        157.50	    13.748
   7.940        151.67	    13.491
   7.960        155.83	    13.675
   7.980        140.83	    13.000
   8.000        147.50	    13.304
   8.020        150.00	    13.416
   8.040        155.00	    13.638
   8.060        128.33	    12.410
   8.080        140.83	    13.000
   8.100        127.50	    12.369
   8.120        146.67	    13.266
   8.140        135.83	    12.767
   8.160        116.67	    11.832
   8.180        141.67	    13.038
   8.200        154.17	    13.601
   8.220        169.17	    14.248
   8.240        150.00	    13.416
   8.260        153.33	    13.565
   8.280        146.67	    13.266
   8.300        140.83	    13.000
   8.320        146.67	    13.266
   8.340        156.67	    13.711
   8.360        147.50	    13.304
   8.380        159.17	    13.820
   8.400        131.67	    12.570
   8.420        122.50	    12.124
   8.440        146.67	    13.266
   8.460        131.67	    12.570
   8.480        150.83	    13.454
   8.500        165.00	    14.071
   8.520        150.83	    13.454
   8.540        146.67	    13.266
   8.560        165.83	    14.107
   8.580        188.33	    15.033
   8.600        170.83	    14.318
   8.620        175.00	    14.491
   8.640        190.83	    15.133
   8.660        217.50	    16.155
   8.680        285.83	    18.520
   8.700        304.17	    19.105
   8.720        250.00	    17.321
   8.740        202.50	    15.588
   8.760        265.00	    17.833
   8.780        316.67	    19.494
   8.800        341.67	    20.248
   8.820        267.50	    17.916
   8.840        175.00	    14.491
   8.860        163.33	    14.000
   8.880        165.00	    14.071
   8.900        134.17	    12.689
   8.920        141.67	    13.038
   8.940        119.17	    11.958
   8.960        143.33	    13.115
   8.980        119.17	    11.958
   9.000        129.17	    12.450
   9.020        141.67	    13.038
   9.040        133.33	    12.649
   9.060        128.33	    12.410
   9.080        120.83	    12.042
   9.100        151.67	    13.491
   9.120        130.00	    12.490
   9.140        131.67	    12.570
   9.160        130.83	    12.530
   9.180        137.50	    12.845
   9.200        139.17	    12.923
   9.220        119.17	    11.958
   9.240        130.00	    12.490
   9.260        128.33	    12.410
   9.280        104.17	    11.180
   9.300        135.83	    12.767
   9.320        134.17	    12.689
   9.340        125.00	    12.247
   9.360        128.33	    12.410
   9.380        122.50	    12.124
   9.400        123.33	    12.166
   9.420        120.00	    12.000
   9.440        122.50	    12.124
   9.460        139.17	    12.923
   9.480        120.00	    12.000
   9.500        123.33	    12.166
   9.520        117.50	    11.874
   9.540        111.67	    11.576
   9.560        108.33	    11.402
   9.580         98.33	    10.863
   9.600        121.67	    12.083
   9.620        104.17	    11.180
   9.640        109.17	    11.446
   9.660         97.50	    10.817
   9.680        135.00	    12.728
   9.700        118.33	    11.916
   9.720        131.67	    12.570
   9.740        121.67	    12.083
   9.760        120.83	    12.042
   9.780        125.83	    12.288
   9.800        110.83	    11.533
   9.820        117.50	    11.874
   9.840        118.33	    11.916
   9.860        124.17	    12.207
   9.880        128.33	    12.410
   9.900         98.33	    10.863
   9.920        120.83	    12.042
   9.940        120.83	    12.042
   9.960        121.67	    12.083
   9.980        120.00	    12.000
  10.000        113.33	    11.662
  10.020        121.67	    12.083
  10.040        110.83	    11.533
  10.060        121.67	    12.083
  10.080        123.33	    12.166
  10.100        124.17	    12.207
  10.120         99.17	    10.909
  10.140        112.50	    11.619
  10.160        116.67	    11.832
  10.180        114.17	    11.705
  10.200        120.00	    12.000
  10.220        108.33	    11.402
  10.240        123.33	    12.166
  10.260        108.33	    11.402
  10.280        107.50	    11.358
  10.300        103.33	    11.136
  10.320        119.17	    11.958
  10.340        120.00	    12.000
  10.360        115.83	    11.790
  10.380        120.00	    12.000
  10.400        170.83	    14.318
  10.420        161.67	    13.928
  10.440        220.00	    16.248
  10.460        253.33	    17.436
  10.480        262.50	    17.748
  10.500        178.33	    14.629
  10.520        127.50	    12.369
  10.540        120.00	    12.000
  10.560        102.50	    11.091
  10.580        102.50	    11.091
  10.600        115.00	    11.747
  10.620        114.17	    11.705
  10.640        100.83	    11.000
  10.660        125.83	    12.288
  10.680        106.67	    11.314
  10.700        105.00	    11.225
  10.720        110.83	    11.533
  10.740         99.17	    10.909
  10.760         91.67	    10.488
  10.780        109.17	    11.446
  10.800        104.17	    11.180
  10.820        110.83	    11.533
  10.840        110.83	    11.533
  10.860         91.67	    10.488
  10.880         96.67	    10.770
  10.900        108.33	    11.402
  10.920        114.17	    11.705
  10.940        100.00	    10.954
  10.960        108.33	    11.402
  10.980        123.33	    12.166
  11.000        106.67	    11.314
  11.020         95.00	    10.677
  11.040        118.33	    11.916
  11.060        110.83	    11.533
  11.080        117.50	    11.874
  11.100         97.50	    10.817
  11.120        101.67	    11.045
  11.140        107.50	    11.358
  11.160         94.17	    10.630
  11.180         81.67	     9.899
  11.200         84.17	    10.050
  11.220         94.17	    10.630
  11.240         97.50	    10.817
  11.260         80.83	     9.849
  11.280        109.17	    11.446
  11.300        110.00	    11.489
  11.320         98.33	    10.863
  11.340         96.67	    10.770
  11.360         93.33	    10.583
  11.380         95.00	    10.677
  11.400         93.33	    10.583
  11.420         95.83	    10.724
  11.440         99.17	    10.909
  11.460         96.67	    10.770
  11.480         98.33	    10.863
  11.500         87.50	    10.247
  11.520        110.83	    11.533
  11.540        102.50	    11.091
  11.560         90.00	    10.392
  11.580         88.33	    10.296
  11.600         97.50	    10.817
  11.620        108.33	    11.402
  11.640        110.83	    11.533
  11.660        114.17	    11.705
  11.680         90.83	    10.440
  11.700         95.83	    10.724
  11.720        104.17	    11.180
  11.740         86.67	    10.198
  11.760        107.50	    11.358
  11.780         96.67	    10.770
  11.800         90.00	    10.392
  11.820        106.67	    11.314
  11.840         93.33	    10.583
  11.860        117.50	    11.874
  11.880         93.33	    10.583
  11.900        121.67	    12.083
  11.920        105.83	    11.269
  11.940        115.83	    11.790
  11.960        139.17	    12.923
  11.980        120.00	    12.000
  12.000        111.67	    11.576
  12.020        135.00	    12.728
  12.040        170.83	    14.318
  12.060        225.83	    16.462
  12.080        265.83	    17.861
  12.100        404.17	    22.023
  12.120        435.00	    22.847
  12.140        335.83	    20.075
  12.160        239.17	    16.941
  12.180        161.67	    13.928
  12.200        132.50	    12.610
  12.220        139.17	    12.923
  12.240        154.17	    13.601
  12.260        150.00	    13.416
  12.280        135.00	    12.728
  12.300        169.17	    14.248
  12.320        133.33	    12.649
  12.340        163.33	    14.000
  12.360        152.50	    13.528
  12.380        183.33	    14.832
  12.400        196.67	    15.362
  12.420        192.50	    15.199
  12.440        180.00	    14.697
  12.460        126.67	    12.329
  12.480        109.17	    11.446
  12.500         97.50	    10.817
  12.520        109.17	    11.446
  12.540         99.17	    10.909
  12.560        100.83	    11.000
  12.580         90.83	    10.440
  12.600        104.17	    11.180
  12.620         85.00	    10.100
  12.640        107.50	    11.358
  12.660         88.33	    10.296
  12.680         87.50	    10.247
  12.700         96.67	    10.770
  12.720         97.50	    10.817
  12.740        100.00	    10.954
  12.760         96.67	    10.770
  12.780         89.17	    10.344
  12.800         96.67	    10.770
  12.820         75.00	     9.487
  12.840         96.67	    10.770
  12.860         81.67	     9.899
  12.880         85.00	    10.100
  12.900         87.50	    10.247
  12.920         77.50	     9.644
  12.940         77.50	     9.644
  12.960        107.50	    11.358
  12.980         90.00	    10.392
  13.000         94.17	    10.630
  13.020         81.67	     9.899
  13.040         87.50	    10.247
  13.060        106.67	    11.314
  13.080         83.33	    10.000
  13.100         90.00	    10.392
  13.120         88.33	    10.296
  13.140         92.50	    10.536
  13.160         96.67	    10.770
  13.180         96.67	    10.770
  13.200         79.17	     9.747
  13.220         87.50	    10.247
  13.240         80.00	     9.798
  13.260         80.83	     9.849
  13.280         79.17	     9.747
  13.300         82.50	     9.950
  13.320         93.33	    10.583
  13.340         85.00	    10.100
  13.360         85.83	    10.149
  13.380         88.33	    10.296
  13.400         76.67	     9.592
  13.420         81.67	     9.899
  13.440         88.33	    10.296
  13.460         93.33	    10.583
  13.480         94.17	    10.630
  13.500         95.00	    10.677
  13.520         86.67	    10.198
  13.540         90.00	    10.392
  13.560         97.50	    10.817
  13.580        117.50	    11.874
  13.600         90.83	    10.440
  13.620        100.00	    10.954
  13.640         86.67	    10.198
  13.660         90.83	    10.440
  13.680         78.33	     9.695
  13.700        100.83	    11.000
  13.720         92.50	    10.536
  13.740        108.33	    11.402
  13.760        104.17	    11.180
  13.780        100.83	    11.000
  13.800        110.00	    11.489
  13.820         86.67	    10.198
  13.840         90.00	    10.392
  13.860         95.83	    10.724
  13.880         97.50	    10.817
  13.900         79.17	     9.747
  13.920         94.17	    10.630
  13.940         83.33	    10.000
  13.960         83.33	    10.000
  13.980         94.17	    10.630
  14.000         76.67	     9.592
  14.020         71.67	     9.274
  14.040         83.33	    10.000
  14.060         86.67	    10.198
  14.080         82.50	     9.950
  14.100         81.67	     9.899
  14.120         82.50	     9.950
  14.140         72.50	     9.327
  14.160         79.17	     9.747
  14.180         87.50	    10.247
  14.200         60.83	     8.544
  14.220         80.83	     9.849
  14.240         93.33	    10.583
  14.260         90.00	    10.392
  14.280         90.83	    10.440
  14.300         92.50	    10.536
  14.320         81.67	     9.899
  14.340         72.50	     9.327
  14.360         73.33	     9.381
  14.380         81.67	     9.899
  14.400         89.17	    10.344
