
Filename:
	C:\Program Files\Thermo Electron\WinXRD\Datafiles\F_HERMAN\GEO\G60_RT.raw

File Created:
	February 20, 2020 - 09:04 PM

Specimen Id:
	G60_RT

Specimen Name:
	

Specimen Description:
	

Comment:
Scan Type: 2Theta Scan
Start Angle: 3 deg.
Stop Angle: 65 deg.
Num Points: 3101
Step Size: 0.02 deg.
Scan Rate: 1.000000
Scan Mode: Continuous
Wavelength: 1.540562
\Kalpha1: 1.540562	\Kalpha2: 1.544390	\Kbeta: 1.392218

Optics:
		Detector:
			 Type: Fixed Slits
		Tube: 
			 Type: Fixed Slits


Datas:
 Pos [deg]       Rate [CPS]      ESD [-]

Range 1 ---> Iteration 1
   3.000        440.83	    23.000
   3.020        435.00	    22.847
   3.040        411.67	    22.226
   3.060        448.33	    23.195
   3.080        420.83	    22.472
   3.100        465.83	    23.643
   3.120        420.00	    22.450
   3.140        429.17	    22.694
   3.160        406.67	    22.091
   3.180        417.50	    22.383
   3.200        388.33	    21.587
   3.220        425.00	    22.583
   3.240        379.17	    21.331
   3.260        389.17	    21.610
   3.280        424.17	    22.561
   3.300        396.67	    21.817
   3.320        363.33	    20.881
   3.340        367.50	    21.000
   3.360        383.33	    21.448
   3.380        376.67	    21.260
   3.400        390.00	    21.633
   3.420        402.50	    21.977
   3.440        402.50	    21.977
   3.460        376.67	    21.260
   3.480        364.17	    20.905
   3.500        339.17	    20.174
   3.520        383.33	    21.448
   3.540        358.33	    20.736
   3.560        350.00	    20.494
   3.580        365.00	    20.928
   3.600        352.50	    20.567
   3.620        345.00	    20.347
   3.640        350.83	    20.518
   3.660        335.83	    20.075
   3.680        355.83	    20.664
   3.700        339.17	    20.174
   3.720        339.17	    20.174
   3.740        341.67	    20.248
   3.760        360.83	    20.809
   3.780        324.17	    19.723
   3.800        315.00	    19.442
   3.820        351.67	    20.543
   3.840        326.67	    19.799
   3.860        328.33	    19.849
   3.880        340.83	    20.224
   3.900        313.33	    19.391
   3.920        359.17	    20.761
   3.940        312.50	    19.365
   3.960        325.83	    19.774
   3.980        308.33	    19.235
   4.000        325.83	    19.774
   4.020        370.00	    21.071
   4.040        320.83	    19.621
   4.060        305.83	    19.157
   4.080        329.17	    19.875
   4.100        298.33	    18.921
   4.120        314.17	    19.416
   4.140        306.67	    19.183
   4.160        276.67	    18.221
   4.180        270.83	    18.028
   4.200        315.00	    19.442
   4.220        310.83	    19.313
   4.240        275.00	    18.166
   4.260        291.67	    18.708
   4.280        290.00	    18.655
   4.300        299.17	    18.947
   4.320        264.17	    17.804
   4.340        308.33	    19.235
   4.360        260.83	    17.692
   4.380        277.50	    18.248
   4.400        275.83	    18.193
   4.420        285.00	    18.493
   4.440        269.17	    17.972
   4.460        257.50	    17.578
   4.480        270.83	    18.028
   4.500        266.67	    17.889
   4.520        272.50	    18.083
   4.540        270.00	    18.000
   4.560        257.50	    17.578
   4.580        261.67	    17.720
   4.600        255.83	    17.521
   4.620        249.17	    17.292
   4.640        279.17	    18.303
   4.660        261.67	    17.720
   4.680        262.50	    17.748
   4.700        284.17	    18.466
   4.720        250.00	    17.321
   4.740        232.50	    16.703
   4.760        235.00	    16.793
   4.780        241.67	    17.029
   4.800        244.17	    17.117
   4.820        260.83	    17.692
   4.840        235.83	    16.823
   4.860        255.00	    17.493
   4.880        260.00	    17.664
   4.900        239.17	    16.941
   4.920        239.17	    16.941
   4.940        270.00	    18.000
   4.960        274.17	    18.138
   4.980        214.17	    16.031
   5.000        229.17	    16.583
   5.020        240.00	    16.971
   5.040        220.00	    16.248
   5.060        241.67	    17.029
   5.080        244.17	    17.117
   5.100        277.50	    18.248
   5.120        256.67	    17.550
   5.140        230.00	    16.613
   5.160        247.50	    17.234
   5.180        230.00	    16.613
   5.200        216.67	    16.125
   5.220        228.33	    16.553
   5.240        235.83	    16.823
   5.260        231.67	    16.673
   5.280        239.17	    16.941
   5.300        226.67	    16.492
   5.320        224.17	    16.401
   5.340        216.67	    16.125
   5.360        207.50	    15.780
   5.380        216.67	    16.125
   5.400        224.17	    16.401
   5.420        222.50	    16.340
   5.440        241.67	    17.029
   5.460        218.33	    16.186
   5.480        210.00	    15.875
   5.500        203.33	    15.620
   5.520        220.83	    16.279
   5.540        215.83	    16.093
   5.560        233.33	    16.733
   5.580        210.83	    15.906
   5.600        200.00	    15.492
   5.620        200.00	    15.492
   5.640        190.00	    15.100
   5.660        217.50	    16.155
   5.680        199.17	    15.460
   5.700        210.83	    15.906
   5.720        189.17	    15.067
   5.740        197.50	    15.395
   5.760        209.17	    15.843
   5.780        212.50	    15.969
   5.800        215.00	    16.062
   5.820        206.67	    15.748
   5.840        219.17	    16.217
   5.860        191.67	    15.166
   5.880        185.00	    14.900
   5.900        167.50	    14.177
   5.920        220.00	    16.248
   5.940        217.50	    16.155
   5.960        226.67	    16.492
   5.980        218.33	    16.186
   6.000        225.83	    16.462
   6.020        214.17	    16.031
   6.040        225.00	    16.432
   6.060        233.33	    16.733
   6.080        245.00	    17.146
   6.100        235.00	    16.793
   6.120        250.00	    17.321
   6.140        285.83	    18.520
   6.160        246.67	    17.205
   6.180        231.67	    16.673
   6.200        211.67	    15.937
   6.220        231.67	    16.673
   6.240        212.50	    15.969
   6.260        185.83	    14.933
   6.280        190.00	    15.100
   6.300        190.00	    15.100
   6.320        183.33	    14.832
   6.340        190.83	    15.133
   6.360        190.83	    15.133
   6.380        192.50	    15.199
   6.400        172.50	    14.387
   6.420        203.33	    15.620
   6.440        184.17	    14.866
   6.460        190.83	    15.133
   6.480        197.50	    15.395
   6.500        190.00	    15.100
   6.520        196.67	    15.362
   6.540        183.33	    14.832
   6.560        198.33	    15.427
   6.580        214.17	    16.031
   6.600        199.17	    15.460
   6.620        190.00	    15.100
   6.640        178.33	    14.629
   6.660        168.33	    14.213
   6.680        170.00	    14.283
   6.700        172.50	    14.387
   6.720        180.83	    14.731
   6.740        175.83	    14.526
   6.760        192.50	    15.199
   6.780        192.50	    15.199
   6.800        190.00	    15.100
   6.820        176.67	    14.560
   6.840        171.67	    14.353
   6.860        171.67	    14.353
   6.880        186.67	    14.967
   6.900        167.50	    14.177
   6.920        174.17	    14.457
   6.940        179.17	    14.663
   6.960        159.17	    13.820
   6.980        170.00	    14.283
   7.000        157.50	    13.748
   7.020        174.17	    14.457
   7.040        164.17	    14.036
   7.060        170.00	    14.283
   7.080        185.83	    14.933
   7.100        183.33	    14.832
   7.120        169.17	    14.248
   7.140        181.67	    14.765
   7.160        151.67	    13.491
   7.180        155.83	    13.675
   7.200        166.67	    14.142
   7.220        160.00	    13.856
   7.240        164.17	    14.036
   7.260        150.00	    13.416
   7.280        190.83	    15.133
   7.300        163.33	    14.000
   7.320        175.83	    14.526
   7.340        179.17	    14.663
   7.360        158.33	    13.784
   7.380        156.67	    13.711
   7.400        163.33	    14.000
   7.420        159.17	    13.820
   7.440        157.50	    13.748
   7.460        159.17	    13.820
   7.480        167.50	    14.177
   7.500        151.67	    13.491
   7.520        157.50	    13.748
   7.540        151.67	    13.491
   7.560        145.83	    13.229
   7.580        138.33	    12.884
   7.600        142.50	    13.077
   7.620        159.17	    13.820
   7.640        165.00	    14.071
   7.660        165.83	    14.107
   7.680        171.67	    14.353
   7.700        147.50	    13.304
   7.720        135.00	    12.728
   7.740        140.00	    12.961
   7.760        136.67	    12.806
   7.780        152.50	    13.528
   7.800        131.67	    12.570
   7.820        158.33	    13.784
   7.840        135.00	    12.728
   7.860        171.67	    14.353
   7.880        145.83	    13.229
   7.900        163.33	    14.000
   7.920        146.67	    13.266
   7.940        148.33	    13.342
   7.960        124.17	    12.207
   7.980        160.83	    13.892
   8.000        157.50	    13.748
   8.020        145.00	    13.191
   8.040        141.67	    13.038
   8.060        138.33	    12.884
   8.080        147.50	    13.304
   8.100        155.00	    13.638
   8.120        141.67	    13.038
   8.140        159.17	    13.820
   8.160        137.50	    12.845
   8.180        144.17	    13.153
   8.200        137.50	    12.845
   8.220        152.50	    13.528
   8.240        136.67	    12.806
   8.260        132.50	    12.610
   8.280        120.83	    12.042
   8.300        125.83	    12.288
   8.320        135.83	    12.767
   8.340        138.33	    12.884
   8.360        135.00	    12.728
   8.380        144.17	    13.153
   8.400        144.17	    13.153
   8.420        150.83	    13.454
   8.440        151.67	    13.491
   8.460        150.00	    13.416
   8.480        158.33	    13.784
   8.500        159.17	    13.820
   8.520        140.00	    12.961
   8.540        147.50	    13.304
   8.560        160.00	    13.856
   8.580        176.67	    14.560
   8.600        192.50	    15.199
   8.620        184.17	    14.866
   8.640        190.83	    15.133
   8.660        224.17	    16.401
   8.680        211.67	    15.937
   8.700        238.33	    16.912
   8.720        260.00	    17.664
   8.740        303.33	    19.079
   8.760        402.50	    21.977
   8.780        465.00	    23.622
   8.800        463.33	    23.580
   8.820        365.83	    20.952
   8.840        289.17	    18.628
   8.860        216.67	    16.125
   8.880        194.17	    15.264
   8.900        155.83	    13.675
   8.920        155.00	    13.638
   8.940        139.17	    12.923
   8.960        145.00	    13.191
   8.980        140.00	    12.961
   9.000        135.00	    12.728
   9.020        104.17	    11.180
   9.040        130.00	    12.490
   9.060        145.83	    13.229
   9.080        135.83	    12.767
   9.100        140.83	    13.000
   9.120        111.67	    11.576
   9.140        110.00	    11.489
   9.160        120.00	    12.000
   9.180        129.17	    12.450
   9.200        131.67	    12.570
   9.220        110.83	    11.533
   9.240        140.00	    12.961
   9.260        122.50	    12.124
   9.280        130.83	    12.530
   9.300        135.83	    12.767
   9.320        125.00	    12.247
   9.340        165.83	    14.107
   9.360        139.17	    12.923
   9.380        133.33	    12.649
   9.400        134.17	    12.689
   9.420        141.67	    13.038
   9.440        128.33	    12.410
   9.460        120.83	    12.042
   9.480        106.67	    11.314
   9.500        112.50	    11.619
   9.520        121.67	    12.083
   9.540        133.33	    12.649
   9.560        123.33	    12.166
   9.580        119.17	    11.958
   9.600         99.17	    10.909
   9.620        115.83	    11.790
   9.640         81.67	     9.899
   9.660        125.00	    12.247
   9.680        106.67	    11.314
   9.700        111.67	    11.576
   9.720        115.00	    11.747
   9.740        121.67	    12.083
   9.760        119.17	    11.958
   9.780        107.50	    11.358
   9.800        122.50	    12.124
   9.820        109.17	    11.446
   9.840        121.67	    12.083
   9.860        116.67	    11.832
   9.880        111.67	    11.576
   9.900        107.50	    11.358
   9.920        106.67	    11.314
   9.940        118.33	    11.916
   9.960        102.50	    11.091
   9.980        110.00	    11.489
  10.000        100.83	    11.000
  10.020        105.83	    11.269
  10.040        109.17	    11.446
  10.060         93.33	    10.583
  10.080        111.67	    11.576
  10.100        110.83	    11.533
  10.120        105.83	    11.269
  10.140         87.50	    10.247
  10.160         96.67	    10.770
  10.180         99.17	    10.909
  10.200        113.33	    11.662
  10.220        114.17	    11.705
  10.240        101.67	    11.045
  10.260        109.17	    11.446
  10.280         95.83	    10.724
  10.300        100.83	    11.000
  10.320        142.50	    13.077
  10.340        117.50	    11.874
  10.360        124.17	    12.207
  10.380        106.67	    11.314
  10.400        115.83	    11.790
  10.420        133.33	    12.649
  10.440        148.33	    13.342
  10.460        116.67	    11.832
  10.480        128.33	    12.410
  10.500        107.50	    11.358
  10.520        106.67	    11.314
  10.540        106.67	    11.314
  10.560         95.00	    10.677
  10.580         90.83	    10.440
  10.600        111.67	    11.576
  10.620         84.17	    10.050
  10.640        112.50	    11.619
  10.660         84.17	    10.050
  10.680        105.83	    11.269
  10.700        105.00	    11.225
  10.720         88.33	    10.296
  10.740         97.50	    10.817
  10.760        103.33	    11.136
  10.780         98.33	    10.863
  10.800        100.00	    10.954
  10.820        100.00	    10.954
  10.840         94.17	    10.630
  10.860         95.83	    10.724
  10.880         77.50	     9.644
  10.900         96.67	    10.770
  10.920        117.50	    11.874
  10.940         95.83	    10.724
  10.960        105.83	    11.269
  10.980        110.83	    11.533
  11.000         95.83	    10.724
  11.020        104.17	    11.180
  11.040        106.67	    11.314
  11.060        105.83	    11.269
  11.080         79.17	     9.747
  11.100        105.00	    11.225
  11.120         95.00	    10.677
  11.140         99.17	    10.909
  11.160         80.00	     9.798
  11.180        100.00	    10.954
  11.200         93.33	    10.583
  11.220         95.00	    10.677
  11.240        100.83	    11.000
  11.260         98.33	    10.863
  11.280         86.67	    10.198
  11.300         97.50	    10.817
  11.320         88.33	    10.296
  11.340         76.67	     9.592
  11.360         83.33	    10.000
  11.380        100.83	    11.000
  11.400         75.83	     9.539
  11.420        107.50	    11.358
  11.440         96.67	    10.770
  11.460         86.67	    10.198
  11.480        101.67	    11.045
  11.500         91.67	    10.488
  11.520        105.83	    11.269
  11.540         97.50	    10.817
  11.560         83.33	    10.000
  11.580         80.83	     9.849
  11.600         92.50	    10.536
  11.620         97.50	    10.817
  11.640         88.33	    10.296
  11.660         95.00	    10.677
  11.680         80.00	     9.798
  11.700         90.00	    10.392
  11.720         89.17	    10.344
  11.740         85.83	    10.149
  11.760        100.00	    10.954
  11.780         89.17	    10.344
  11.800        100.00	    10.954
  11.820         85.00	    10.100
  11.840         98.33	    10.863
  11.860         81.67	     9.899
  11.880        104.17	    11.180
  11.900         95.00	    10.677
  11.920        100.00	    10.954
  11.940         92.50	    10.536
  11.960        103.33	    11.136
  11.980        110.00	    11.489
  12.000        127.50	    12.369
  12.020        163.33	    14.000
  12.040        130.00	    12.490
  12.060        155.00	    13.638
  12.080        203.33	    15.620
  12.100        227.50	    16.523
  12.120        246.67	    17.205
  12.140        216.67	    16.125
  12.160        155.00	    13.638
  12.180        145.00	    13.191
  12.200        139.17	    12.923
  12.220        136.67	    12.806
  12.240        128.33	    12.410
  12.260        153.33	    13.565
  12.280        157.50	    13.748
  12.300        145.83	    13.229
  12.320        142.50	    13.077
  12.340        182.50	    14.799
  12.360        206.67	    15.748
  12.380        234.17	    16.763
  12.400        270.00	    18.000
  12.420        290.83	    18.682
  12.440        214.17	    16.031
  12.460        153.33	    13.565
  12.480        140.83	    13.000
  12.500        101.67	    11.045
  12.520        120.00	    12.000
  12.540         89.17	    10.344
  12.560        104.17	    11.180
  12.580         86.67	    10.198
  12.600         85.00	    10.100
  12.620         96.67	    10.770
  12.640         90.00	    10.392
  12.660         94.17	    10.630
  12.680         86.67	    10.198
  12.700         67.50	     9.000
  12.720         76.67	     9.592
  12.740         82.50	     9.950
  12.760         60.00	     8.485
  12.780         88.33	    10.296
  12.800         60.83	     8.544
  12.820         78.33	     9.695
  12.840         54.17	     8.062
  12.860         65.83	     8.888
  12.880         66.67	     8.944
  12.900         80.00	     9.798
  12.920         81.67	     9.899
  12.940         85.00	    10.100
  12.960         74.17	     9.434
  12.980         79.17	     9.747
  13.000         68.33	     9.055
  13.020         81.67	     9.899
  13.040         77.50	     9.644
  13.060         70.83	     9.220
  13.080         73.33	     9.381
  13.100         82.50	     9.950
  13.120         89.17	    10.344
  13.140         74.17	     9.434
  13.160         79.17	     9.747
  13.180         71.67	     9.274
  13.200         84.17	    10.050
  13.220         75.00	     9.487
  13.240         79.17	     9.747
  13.260         85.83	    10.149
  13.280         79.17	     9.747
  13.300         72.50	     9.327
  13.320         84.17	    10.050
  13.340         86.67	    10.198
  13.360         74.17	     9.434
  13.380         58.33	     8.367
  13.400         78.33	     9.695
  13.420         83.33	    10.000
  13.440         80.83	     9.849
  13.460         84.17	    10.050
  13.480         69.17	     9.110
  13.500         62.50	     8.660
  13.520         84.17	    10.050
  13.540         80.00	     9.798
  13.560        103.33	    11.136
  13.580         87.50	    10.247
  13.600         90.83	    10.440
  13.620         70.00	     9.165
  13.640         75.83	     9.539
  13.660         75.00	     9.487
  13.680         94.17	    10.630
  13.700         81.67	     9.899
  13.720         92.50	    10.536
  13.740         87.50	    10.247
  13.760         97.50	    10.817
  13.780         95.83	    10.724
  13.800         86.67	    10.198
  13.820         77.50	     9.644
  13.840         90.00	    10.392
  13.860         65.00	     8.832
  13.880         68.33	     9.055
  13.900         80.83	     9.849
  13.920         65.83	     8.888
  13.940         82.50	     9.950
  13.960         65.83	     8.888
  13.980         81.67	     9.899
  14.000         69.17	     9.110
  14.020         65.00	     8.832
  14.040         63.33	     8.718
  14.060         66.67	     8.944
  14.080         68.33	     9.055
  14.100         70.83	     9.220
  14.120         77.50	     9.644
  14.140         71.67	     9.274
  14.160         74.17	     9.434
  14.180         82.50	     9.950
  14.200         66.67	     8.944
  14.220         67.50	     9.000
  14.240         66.67	     8.944
  14.260         65.83	     8.888
  14.280         70.83	     9.220
  14.300         69.17	     9.110
  14.320         82.50	     9.950
  14.340         66.67	     8.944
  14.360         74.17	     9.434
  14.380         80.83	     9.849
  14.400         61.67	     8.602
