
Filename:
	C:\Program Files\Thermo Electron\WinXRD\Datafiles\F_HERMAN\GEO\G61_RT.raw

File Created:
	February 18, 2020 - 04:53 AM

Specimen Id:
	G61_RT

Specimen Name:
	

Specimen Description:
	

Comment:
Scan Type: 2Theta Scan
Start Angle: 3 deg.
Stop Angle: 65 deg.
Num Points: 3101
Step Size: 0.02 deg.
Scan Rate: 1.000000
Scan Mode: Continuous
Wavelength: 1.540562
\Kalpha1: 1.540562	\Kalpha2: 1.544390	\Kbeta: 1.392218

Optics:
		Detector:
			 Type: Fixed Slits
		Tube: 
			 Type: Fixed Slits


Datas:
 Pos [deg]       Rate [CPS]      ESD [-]

Range 1 ---> Iteration 1
   3.000        450.00	    23.238
   3.020        480.00	    24.000
   3.040        478.33	    23.958
   3.060        443.33	    23.065
   3.080        434.17	    22.825
   3.100        438.33	    22.935
   3.120        452.50	    23.302
   3.140        464.17	    23.601
   3.160        422.50	    22.517
   3.180        435.00	    22.847
   3.200        425.83	    22.605
   3.220        380.00	    21.354
   3.240        408.33	    22.136
   3.260        400.83	    21.932
   3.280        411.67	    22.226
   3.300        430.00	    22.716
   3.320        382.50	    21.424
   3.340        388.33	    21.587
   3.360        420.83	    22.472
   3.380        389.17	    21.610
   3.400        386.67	    21.541
   3.420        361.67	    20.833
   3.440        386.67	    21.541
   3.460        362.50	    20.857
   3.480        418.33	    22.405
   3.500        376.67	    21.260
   3.520        360.83	    20.809
   3.540        354.17	    20.616
   3.560        369.17	    21.048
   3.580        376.67	    21.260
   3.600        390.00	    21.633
   3.620        383.33	    21.448
   3.640        351.67	    20.543
   3.660        390.83	    21.656
   3.680        350.00	    20.494
   3.700        340.00	    20.199
   3.720        350.00	    20.494
   3.740        336.67	    20.100
   3.760        378.33	    21.307
   3.780        362.50	    20.857
   3.800        369.17	    21.048
   3.820        337.50	    20.125
   3.840        350.00	    20.494
   3.860        330.83	    19.925
   3.880        358.33	    20.736
   3.900        341.67	    20.248
   3.920        337.50	    20.125
   3.940        322.50	    19.672
   3.960        300.00	    18.974
   3.980        339.17	    20.174
   4.000        361.67	    20.833
   4.020        323.33	    19.698
   4.040        310.00	    19.287
   4.060        285.83	    18.520
   4.080        343.33	    20.298
   4.100        310.00	    19.287
   4.120        324.17	    19.723
   4.140        287.50	    18.574
   4.160        323.33	    19.698
   4.180        316.67	    19.494
   4.200        329.17	    19.875
   4.220        288.33	    18.601
   4.240        303.33	    19.079
   4.260        318.33	    19.545
   4.280        314.17	    19.416
   4.300        316.67	    19.494
   4.320        288.33	    18.601
   4.340        295.83	    18.841
   4.360        300.00	    18.974
   4.380        300.00	    18.974
   4.400        283.33	    18.439
   4.420        290.00	    18.655
   4.440        275.00	    18.166
   4.460        296.67	    18.868
   4.480        299.17	    18.947
   4.500        296.67	    18.868
   4.520        284.17	    18.466
   4.540        286.67	    18.547
   4.560        296.67	    18.868
   4.580        245.83	    17.176
   4.600        260.83	    17.692
   4.620        269.17	    17.972
   4.640        271.67	    18.055
   4.660        282.50	    18.412
   4.680        283.33	    18.439
   4.700        270.83	    18.028
   4.720        266.67	    17.889
   4.740        280.83	    18.358
   4.760        240.83	    17.000
   4.780        270.00	    18.000
   4.800        247.50	    17.234
   4.820        260.00	    17.664
   4.840        247.50	    17.234
   4.860        256.67	    17.550
   4.880        259.17	    17.635
   4.900        246.67	    17.205
   4.920        259.17	    17.635
   4.940        239.17	    16.941
   4.960        279.17	    18.303
   4.980        256.67	    17.550
   5.000        268.33	    17.944
   5.020        260.83	    17.692
   5.040        275.00	    18.166
   5.060        261.67	    17.720
   5.080        251.67	    17.378
   5.100        225.83	    16.462
   5.120        245.00	    17.146
   5.140        244.17	    17.117
   5.160        258.33	    17.607
   5.180        239.17	    16.941
   5.200        235.83	    16.823
   5.220        219.17	    16.217
   5.240        214.17	    16.031
   5.260        246.67	    17.205
   5.280        238.33	    16.912
   5.300        222.50	    16.340
   5.320        217.50	    16.155
   5.340        229.17	    16.583
   5.360        220.83	    16.279
   5.380        238.33	    16.912
   5.400        218.33	    16.186
   5.420        232.50	    16.703
   5.440        220.83	    16.279
   5.460        214.17	    16.031
   5.480        239.17	    16.941
   5.500        200.00	    15.492
   5.520        200.83	    15.524
   5.540        221.67	    16.310
   5.560        200.00	    15.492
   5.580        224.17	    16.401
   5.600        236.67	    16.852
   5.620        225.83	    16.462
   5.640        201.67	    15.556
   5.660        208.33	    15.811
   5.680        207.50	    15.780
   5.700        225.00	    16.432
   5.720        224.17	    16.401
   5.740        239.17	    16.941
   5.760        240.00	    16.971
   5.780        206.67	    15.748
   5.800        238.33	    16.912
   5.820        196.67	    15.362
   5.840        186.67	    14.967
   5.860        228.33	    16.553
   5.880        218.33	    16.186
   5.900        216.67	    16.125
   5.920        225.83	    16.462
   5.940        230.00	    16.613
   5.960        215.83	    16.093
   5.980        221.67	    16.310
   6.000        229.17	    16.583
   6.020        233.33	    16.733
   6.040        217.50	    16.155
   6.060        296.67	    18.868
   6.080        287.50	    18.574
   6.100        275.00	    18.166
   6.120        270.83	    18.028
   6.140        244.17	    17.117
   6.160        241.67	    17.029
   6.180        242.50	    17.059
   6.200        185.83	    14.933
   6.220        209.17	    15.843
   6.240        204.17	    15.652
   6.260        195.83	    15.330
   6.280        200.00	    15.492
   6.300        218.33	    16.186
   6.320        199.17	    15.460
   6.340        206.67	    15.748
   6.360        200.83	    15.524
   6.380        197.50	    15.395
   6.400        187.50	    15.000
   6.420        195.00	    15.297
   6.440        196.67	    15.362
   6.460        196.67	    15.362
   6.480        209.17	    15.843
   6.500        200.83	    15.524
   6.520        190.00	    15.100
   6.540        194.17	    15.264
   6.560        176.67	    14.560
   6.580        200.00	    15.492
   6.600        193.33	    15.232
   6.620        179.17	    14.663
   6.640        195.00	    15.297
   6.660        197.50	    15.395
   6.680        171.67	    14.353
   6.700        181.67	    14.765
   6.720        178.33	    14.629
   6.740        194.17	    15.264
   6.760        159.17	    13.820
   6.780        165.83	    14.107
   6.800        175.83	    14.526
   6.820        200.00	    15.492
   6.840        180.83	    14.731
   6.860        174.17	    14.457
   6.880        182.50	    14.799
   6.900        175.83	    14.526
   6.920        175.00	    14.491
   6.940        176.67	    14.560
   6.960        182.50	    14.799
   6.980        193.33	    15.232
   7.000        173.33	    14.422
   7.020        179.17	    14.663
   7.040        157.50	    13.748
   7.060        172.50	    14.387
   7.080        185.00	    14.900
   7.100        184.17	    14.866
   7.120        159.17	    13.820
   7.140        161.67	    13.928
   7.160        153.33	    13.565
   7.180        176.67	    14.560
   7.200        189.17	    15.067
   7.220        140.00	    12.961
   7.240        175.83	    14.526
   7.260        166.67	    14.142
   7.280        167.50	    14.177
   7.300        167.50	    14.177
   7.320        154.17	    13.601
   7.340        164.17	    14.036
   7.360        180.00	    14.697
   7.380        178.33	    14.629
   7.400        146.67	    13.266
   7.420        160.00	    13.856
   7.440        155.00	    13.638
   7.460        148.33	    13.342
   7.480        138.33	    12.884
   7.500        142.50	    13.077
   7.520        168.33	    14.213
   7.540        179.17	    14.663
   7.560        132.50	    12.610
   7.580        160.00	    13.856
   7.600        162.50	    13.964
   7.620        145.00	    13.191
   7.640        151.67	    13.491
   7.660        160.83	    13.892
   7.680        145.00	    13.191
   7.700        155.83	    13.675
   7.720        167.50	    14.177
   7.740        137.50	    12.845
   7.760        159.17	    13.820
   7.780        127.50	    12.369
   7.800        160.00	    13.856
   7.820        127.50	    12.369
   7.840        140.83	    13.000
   7.860        147.50	    13.304
   7.880        131.67	    12.570
   7.900        159.17	    13.820
   7.920        160.83	    13.892
   7.940        157.50	    13.748
   7.960        140.00	    12.961
   7.980        152.50	    13.528
   8.000        145.83	    13.229
   8.020        130.00	    12.490
   8.040        145.00	    13.191
   8.060        150.83	    13.454
   8.080        135.83	    12.767
   8.100        138.33	    12.884
   8.120        140.83	    13.000
   8.140        157.50	    13.748
   8.160        137.50	    12.845
   8.180        155.00	    13.638
   8.200        124.17	    12.207
   8.220        129.17	    12.450
   8.240        139.17	    12.923
   8.260        140.00	    12.961
   8.280        157.50	    13.748
   8.300        146.67	    13.266
   8.320        153.33	    13.565
   8.340        140.83	    13.000
   8.360        133.33	    12.649
   8.380        152.50	    13.528
   8.400        139.17	    12.923
   8.420        137.50	    12.845
   8.440        141.67	    13.038
   8.460        141.67	    13.038
   8.480        157.50	    13.748
   8.500        170.00	    14.283
   8.520        159.17	    13.820
   8.540        164.17	    14.036
   8.560        163.33	    14.000
   8.580        144.17	    13.153
   8.600        171.67	    14.353
   8.620        163.33	    14.000
   8.640        165.83	    14.107
   8.660        166.67	    14.142
   8.680        146.67	    13.266
   8.700        202.50	    15.588
   8.720        186.67	    14.967
   8.740        268.33	    17.944
   8.760        308.33	    19.235
   8.780        403.33	    22.000
   8.800        340.00	    20.199
   8.820        282.50	    18.412
   8.840        207.50	    15.780
   8.860        155.00	    13.638
   8.880        132.50	    12.610
   8.900        139.17	    12.923
   8.920        140.83	    13.000
   8.940        151.67	    13.491
   8.960        132.50	    12.610
   8.980        142.50	    13.077
   9.000        139.17	    12.923
   9.020        139.17	    12.923
   9.040        135.83	    12.767
   9.060        143.33	    13.115
   9.080        148.33	    13.342
   9.100        136.67	    12.806
   9.120        154.17	    13.601
   9.140        155.00	    13.638
   9.160        122.50	    12.124
   9.180        145.83	    13.229
   9.200        117.50	    11.874
   9.220        145.00	    13.191
   9.240        119.17	    11.958
   9.260        132.50	    12.610
   9.280        115.00	    11.747
   9.300        124.17	    12.207
   9.320        176.67	    14.560
   9.340        152.50	    13.528
   9.360        141.67	    13.038
   9.380        147.50	    13.304
   9.400        130.00	    12.490
   9.420        121.67	    12.083
   9.440        130.00	    12.490
   9.460        125.00	    12.247
   9.480        127.50	    12.369
   9.500        139.17	    12.923
   9.520        115.83	    11.790
   9.540        107.50	    11.358
   9.560        141.67	    13.038
   9.580        123.33	    12.166
   9.600        128.33	    12.410
   9.620        105.83	    11.269
   9.640        115.83	    11.790
   9.660        131.67	    12.570
   9.680        124.17	    12.207
   9.700        110.83	    11.533
   9.720        110.00	    11.489
   9.740        114.17	    11.705
   9.760        102.50	    11.091
   9.780         99.17	    10.909
   9.800        107.50	    11.358
   9.820        125.00	    12.247
   9.840        130.00	    12.490
   9.860        121.67	    12.083
   9.880        117.50	    11.874
   9.900         95.00	    10.677
   9.920        123.33	    12.166
   9.940         97.50	    10.817
   9.960         96.67	    10.770
   9.980        117.50	    11.874
  10.000         91.67	    10.488
  10.020        105.00	    11.225
  10.040        118.33	    11.916
  10.060        125.00	    12.247
  10.080        115.83	    11.790
  10.100        106.67	    11.314
  10.120         95.00	    10.677
  10.140        126.67	    12.329
  10.160        119.17	    11.958
  10.180        102.50	    11.091
  10.200        106.67	    11.314
  10.220        106.67	    11.314
  10.240        101.67	    11.045
  10.260        110.00	    11.489
  10.280        110.83	    11.533
  10.300        119.17	    11.958
  10.320        132.50	    12.610
  10.340        130.83	    12.530
  10.360        114.17	    11.705
  10.380        149.17	    13.379
  10.400        166.67	    14.142
  10.420        185.83	    14.933
  10.440        228.33	    16.553
  10.460        337.50	    20.125
  10.480        367.50	    21.000
  10.500        337.50	    20.125
  10.520        220.00	    16.248
  10.540        125.83	    12.288
  10.560        126.67	    12.329
  10.580        103.33	    11.136
  10.600        115.83	    11.790
  10.620        114.17	    11.705
  10.640        110.83	    11.533
  10.660        111.67	    11.576
  10.680        103.33	    11.136
  10.700        103.33	    11.136
  10.720        111.67	    11.576
  10.740        109.17	    11.446
  10.760        110.00	    11.489
  10.780        114.17	    11.705
  10.800         95.00	    10.677
  10.820        107.50	    11.358
  10.840        100.00	    10.954
  10.860         93.33	    10.583
  10.880        106.67	    11.314
  10.900        106.67	    11.314
  10.920        116.67	    11.832
  10.940        112.50	    11.619
  10.960        112.50	    11.619
  10.980         93.33	    10.583
  11.000        102.50	    11.091
  11.020         95.83	    10.724
  11.040         99.17	    10.909
  11.060        114.17	    11.705
  11.080        108.33	    11.402
  11.100        125.00	    12.247
  11.120        114.17	    11.705
  11.140         90.83	    10.440
  11.160         92.50	    10.536
  11.180        100.83	    11.000
  11.200         85.83	    10.149
  11.220        102.50	    11.091
  11.240        100.83	    11.000
  11.260        100.83	    11.000
  11.280         96.67	    10.770
  11.300        115.00	    11.747
  11.320        116.67	    11.832
  11.340         91.67	    10.488
  11.360        116.67	    11.832
  11.380         93.33	    10.583
  11.400        115.83	    11.790
  11.420        101.67	    11.045
  11.440        108.33	    11.402
  11.460         95.83	    10.724
  11.480        100.83	    11.000
  11.500         95.83	    10.724
  11.520         97.50	    10.817
  11.540         88.33	    10.296
  11.560        102.50	    11.091
  11.580        109.17	    11.446
  11.600         91.67	    10.488
  11.620         95.00	    10.677
  11.640         95.00	    10.677
  11.660        115.00	    11.747
  11.680        100.00	    10.954
  11.700         80.83	     9.849
  11.720        105.83	    11.269
  11.740         85.00	    10.100
  11.760        100.83	    11.000
  11.780         94.17	    10.630
  11.800        101.67	    11.045
  11.820        109.17	    11.446
  11.840        121.67	    12.083
  11.860        103.33	    11.136
  11.880        113.33	    11.662
  11.900        104.17	    11.180
  11.920        116.67	    11.832
  11.940        125.00	    12.247
  11.960        124.17	    12.207
  11.980        143.33	    13.115
  12.000        155.00	    13.638
  12.020        180.00	    14.697
  12.040        220.00	    16.248
  12.060        290.00	    18.655
  12.080        350.83	    20.518
  12.100        391.67	    21.679
  12.120        389.17	    21.610
  12.140        269.17	    17.972
  12.160        210.00	    15.875
  12.180        175.00	    14.491
  12.200        193.33	    15.232
  12.220        185.83	    14.933
  12.240        209.17	    15.843
  12.260        234.17	    16.763
  12.280        231.67	    16.673
  12.300        171.67	    14.353
  12.320        182.50	    14.799
  12.340        176.67	    14.560
  12.360        169.17	    14.248
  12.380        197.50	    15.395
  12.400        217.50	    16.155
  12.420        199.17	    15.460
  12.440        170.83	    14.318
  12.460        129.17	    12.450
  12.480        125.83	    12.288
  12.500        114.17	    11.705
  12.520        100.83	    11.000
  12.540         98.33	    10.863
  12.560         96.67	    10.770
  12.580         96.67	    10.770
  12.600         94.17	    10.630
  12.620        105.00	    11.225
  12.640         96.67	    10.770
  12.660         96.67	    10.770
  12.680        110.00	    11.489
  12.700         95.00	    10.677
  12.720         90.83	    10.440
  12.740         85.00	    10.100
  12.760         85.00	    10.100
  12.780         90.83	    10.440
  12.800         73.33	     9.381
  12.820         74.17	     9.434
  12.840         76.67	     9.592
  12.860         76.67	     9.592
  12.880         74.17	     9.434
  12.900         89.17	    10.344
  12.920         79.17	     9.747
  12.940         73.33	     9.381
  12.960         95.00	    10.677
  12.980         93.33	    10.583
  13.000        100.83	    11.000
  13.020         80.00	     9.798
  13.040         86.67	    10.198
  13.060         85.83	    10.149
  13.080         82.50	     9.950
  13.100         82.50	     9.950
  13.120         77.50	     9.644
  13.140         92.50	    10.536
  13.160         77.50	     9.644
  13.180         82.50	     9.950
  13.200         78.33	     9.695
  13.220         82.50	     9.950
  13.240         83.33	    10.000
  13.260         82.50	     9.950
  13.280         81.67	     9.899
  13.300        101.67	    11.045
  13.320         83.33	    10.000
  13.340         73.33	     9.381
  13.360         90.00	    10.392
  13.380         75.83	     9.539
  13.400         79.17	     9.747
  13.420         99.17	    10.909
  13.440         75.00	     9.487
  13.460         77.50	     9.644
  13.480         90.83	    10.440
  13.500         99.17	    10.909
  13.520        107.50	    11.358
  13.540         82.50	     9.950
  13.560         96.67	    10.770
  13.580         83.33	    10.000
  13.600         84.17	    10.050
  13.620         76.67	     9.592
  13.640         95.83	    10.724
  13.660         89.17	    10.344
  13.680         90.00	    10.392
  13.700         75.00	     9.487
  13.720        102.50	    11.091
  13.740        118.33	    11.916
  13.760        111.67	    11.576
  13.780        111.67	    11.576
  13.800         84.17	    10.050
  13.820         90.83	    10.440
  13.840         79.17	     9.747
  13.860         91.67	    10.488
  13.880         89.17	    10.344
  13.900         70.00	     9.165
  13.920         73.33	     9.381
  13.940         94.17	    10.630
  13.960         96.67	    10.770
  13.980         79.17	     9.747
  14.000         84.17	    10.050
  14.020         62.50	     8.660
  14.040         83.33	    10.000
  14.060         68.33	     9.055
  14.080         78.33	     9.695
  14.100         77.50	     9.644
  14.120         80.00	     9.798
  14.140         81.67	     9.899
  14.160         62.50	     8.660
  14.180         65.83	     8.888
  14.200         84.17	    10.050
  14.220         76.67	     9.592
  14.240         69.17	     9.110
  14.260         72.50	     9.327
  14.280         73.33	     9.381
  14.300         77.50	     9.644
  14.320         73.33	     9.381
  14.340         73.33	     9.381
  14.360         70.00	     9.165
  14.380         87.50	    10.247
  14.400         71.67	     9.274
