
Filename:
	C:\Program Files\Thermo Electron\WinXRD\Datafiles\F_HERMAN\GEO\G62_RT.raw

File Created:
	February 19, 2020 - 11:56 PM

Specimen Id:
	G62_RT

Specimen Name:
	

Specimen Description:
	

Comment:
Scan Type: 2Theta Scan
Start Angle: 3 deg.
Stop Angle: 65 deg.
Num Points: 3101
Step Size: 0.02 deg.
Scan Rate: 1.000000
Scan Mode: Continuous
Wavelength: 1.540562
\Kalpha1: 1.540562	\Kalpha2: 1.544390	\Kbeta: 1.392218

Optics:
		Detector:
			 Type: Fixed Slits
		Tube: 
			 Type: Fixed Slits


Datas:
 Pos [deg]       Rate [CPS]      ESD [-]

Range 1 ---> Iteration 1
   3.000        448.33	    23.195
   3.020        463.33	    23.580
   3.040        444.17	    23.087
   3.060        438.33	    22.935
   3.080        431.67	    22.760
   3.100        410.00	    22.181
   3.120        412.50	    22.249
   3.140        428.33	    22.672
   3.160        431.67	    22.760
   3.180        412.50	    22.249
   3.200        410.83	    22.204
   3.220        401.67	    21.954
   3.240        400.00	    21.909
   3.260        401.67	    21.954
   3.280        365.83	    20.952
   3.300        361.67	    20.833
   3.320        379.17	    21.331
   3.340        420.83	    22.472
   3.360        400.00	    21.909
   3.380        367.50	    21.000
   3.400        365.00	    20.928
   3.420        384.17	    21.471
   3.440        404.17	    22.023
   3.460        363.33	    20.881
   3.480        374.17	    21.190
   3.500        370.83	    21.095
   3.520        363.33	    20.881
   3.540        380.83	    21.378
   3.560        353.33	    20.591
   3.580        361.67	    20.833
   3.600        333.33	    20.000
   3.620        364.17	    20.905
   3.640        350.00	    20.494
   3.660        339.17	    20.174
   3.680        341.67	    20.248
   3.700        358.33	    20.736
   3.720        326.67	    19.799
   3.740        316.67	    19.494
   3.760        330.00	    19.900
   3.780        350.00	    20.494
   3.800        318.33	    19.545
   3.820        333.33	    20.000
   3.840        349.17	    20.469
   3.860        352.50	    20.567
   3.880        299.17	    18.947
   3.900        290.00	    18.655
   3.920        333.33	    20.000
   3.940        340.00	    20.199
   3.960        320.83	    19.621
   3.980        319.17	    19.570
   4.000        323.33	    19.698
   4.020        319.17	    19.570
   4.040        300.00	    18.974
   4.060        305.83	    19.157
   4.080        286.67	    18.547
   4.100        302.50	    19.053
   4.120        290.00	    18.655
   4.140        300.83	    19.000
   4.160        314.17	    19.416
   4.180        301.67	    19.026
   4.200        290.00	    18.655
   4.220        283.33	    18.439
   4.240        310.83	    19.313
   4.260        286.67	    18.547
   4.280        310.00	    19.287
   4.300        254.17	    17.464
   4.320        271.67	    18.055
   4.340        290.00	    18.655
   4.360        278.33	    18.276
   4.380        298.33	    18.921
   4.400        272.50	    18.083
   4.420        298.33	    18.921
   4.440        275.83	    18.193
   4.460        276.67	    18.221
   4.480        269.17	    17.972
   4.500        299.17	    18.947
   4.520        273.33	    18.111
   4.540        280.00	    18.330
   4.560        290.83	    18.682
   4.580        263.33	    17.776
   4.600        238.33	    16.912
   4.620        261.67	    17.720
   4.640        280.00	    18.330
   4.660        233.33	    16.733
   4.680        241.67	    17.029
   4.700        259.17	    17.635
   4.720        259.17	    17.635
   4.740        273.33	    18.111
   4.760        267.50	    17.916
   4.780        255.83	    17.521
   4.800        240.00	    16.971
   4.820        227.50	    16.523
   4.840        254.17	    17.464
   4.860        257.50	    17.578
   4.880        235.00	    16.793
   4.900        255.83	    17.521
   4.920        250.00	    17.321
   4.940        245.00	    17.146
   4.960        241.67	    17.029
   4.980        261.67	    17.720
   5.000        243.33	    17.088
   5.020        250.00	    17.321
   5.040        237.50	    16.882
   5.060        242.50	    17.059
   5.080        233.33	    16.733
   5.100        260.00	    17.664
   5.120        244.17	    17.117
   5.140        246.67	    17.205
   5.160        228.33	    16.553
   5.180        213.33	    16.000
   5.200        235.00	    16.793
   5.220        230.00	    16.613
   5.240        209.17	    15.843
   5.260        218.33	    16.186
   5.280        230.83	    16.643
   5.300        223.33	    16.371
   5.320        225.83	    16.462
   5.340        228.33	    16.553
   5.360        205.00	    15.684
   5.380        208.33	    15.811
   5.400        210.00	    15.875
   5.420        241.67	    17.029
   5.440        210.83	    15.906
   5.460        199.17	    15.460
   5.480        226.67	    16.492
   5.500        215.00	    16.062
   5.520        215.00	    16.062
   5.540        225.00	    16.432
   5.560        223.33	    16.371
   5.580        246.67	    17.205
   5.600        230.00	    16.613
   5.620        205.00	    15.684
   5.640        211.67	    15.937
   5.660        229.17	    16.583
   5.680        207.50	    15.780
   5.700        182.50	    14.799
   5.720        226.67	    16.492
   5.740        185.83	    14.933
   5.760        198.33	    15.427
   5.780        222.50	    16.340
   5.800        194.17	    15.264
   5.820        209.17	    15.843
   5.840        229.17	    16.583
   5.860        240.00	    16.971
   5.880        235.83	    16.823
   5.900        230.00	    16.613
   5.920        213.33	    16.000
   5.940        226.67	    16.492
   5.960        225.83	    16.462
   5.980        237.50	    16.882
   6.000        244.17	    17.117
   6.020        245.83	    17.176
   6.040        260.83	    17.692
   6.060        239.17	    16.941
   6.080        284.17	    18.466
   6.100        259.17	    17.635
   6.120        257.50	    17.578
   6.140        271.67	    18.055
   6.160        297.50	    18.894
   6.180        255.00	    17.493
   6.200        201.67	    15.556
   6.220        200.00	    15.492
   6.240        195.83	    15.330
   6.260        191.67	    15.166
   6.280        196.67	    15.362
   6.300        208.33	    15.811
   6.320        216.67	    16.125
   6.340        210.00	    15.875
   6.360        180.83	    14.731
   6.380        154.17	    13.601
   6.400        215.00	    16.062
   6.420        183.33	    14.832
   6.440        175.83	    14.526
   6.460        210.83	    15.906
   6.480        175.83	    14.526
   6.500        185.83	    14.933
   6.520        207.50	    15.780
   6.540        189.17	    15.067
   6.560        187.50	    15.000
   6.580        181.67	    14.765
   6.600        202.50	    15.588
   6.620        169.17	    14.248
   6.640        168.33	    14.213
   6.660        186.67	    14.967
   6.680        202.50	    15.588
   6.700        170.00	    14.283
   6.720        186.67	    14.967
   6.740        190.83	    15.133
   6.760        173.33	    14.422
   6.780        182.50	    14.799
   6.800        163.33	    14.000
   6.820        201.67	    15.556
   6.840        193.33	    15.232
   6.860        179.17	    14.663
   6.880        185.83	    14.933
   6.900        160.83	    13.892
   6.920        184.17	    14.866
   6.940        159.17	    13.820
   6.960        185.83	    14.933
   6.980        178.33	    14.629
   7.000        181.67	    14.765
   7.020        160.83	    13.892
   7.040        173.33	    14.422
   7.060        179.17	    14.663
   7.080        170.00	    14.283
   7.100        156.67	    13.711
   7.120        172.50	    14.387
   7.140        160.83	    13.892
   7.160        159.17	    13.820
   7.180        163.33	    14.000
   7.200        165.83	    14.107
   7.220        200.83	    15.524
   7.240        154.17	    13.601
   7.260        177.50	    14.595
   7.280        150.00	    13.416
   7.300        138.33	    12.884
   7.320        160.00	    13.856
   7.340        149.17	    13.379
   7.360        151.67	    13.491
   7.380        163.33	    14.000
   7.400        158.33	    13.784
   7.420        150.00	    13.416
   7.440        150.00	    13.416
   7.460        138.33	    12.884
   7.480        132.50	    12.610
   7.500        152.50	    13.528
   7.520        150.00	    13.416
   7.540        155.83	    13.675
   7.560        146.67	    13.266
   7.580        128.33	    12.410
   7.600        170.83	    14.318
   7.620        145.83	    13.229
   7.640        171.67	    14.353
   7.660        158.33	    13.784
   7.680        140.83	    13.000
   7.700        145.00	    13.191
   7.720        146.67	    13.266
   7.740        141.67	    13.038
   7.760        152.50	    13.528
   7.780        144.17	    13.153
   7.800        131.67	    12.570
   7.820        142.50	    13.077
   7.840        160.00	    13.856
   7.860        140.00	    12.961
   7.880        142.50	    13.077
   7.900        149.17	    13.379
   7.920        139.17	    12.923
   7.940        129.17	    12.450
   7.960        153.33	    13.565
   7.980        165.83	    14.107
   8.000        149.17	    13.379
   8.020        140.83	    13.000
   8.040        135.83	    12.767
   8.060        135.00	    12.728
   8.080        144.17	    13.153
   8.100        149.17	    13.379
   8.120        145.83	    13.229
   8.140        128.33	    12.410
   8.160        133.33	    12.649
   8.180        127.50	    12.369
   8.200        148.33	    13.342
   8.220        143.33	    13.115
   8.240        139.17	    12.923
   8.260        127.50	    12.369
   8.280        134.17	    12.689
   8.300        146.67	    13.266
   8.320        135.00	    12.728
   8.340        131.67	    12.570
   8.360        150.83	    13.454
   8.380        151.67	    13.491
   8.400        155.00	    13.638
   8.420        159.17	    13.820
   8.440        135.83	    12.767
   8.460        153.33	    13.565
   8.480        125.00	    12.247
   8.500        154.17	    13.601
   8.520        156.67	    13.711
   8.540        160.83	    13.892
   8.560        150.83	    13.454
   8.580        175.00	    14.491
   8.600        171.67	    14.353
   8.620        158.33	    13.784
   8.640        183.33	    14.832
   8.660        189.17	    15.067
   8.680        211.67	    15.937
   8.700        234.17	    16.763
   8.720        261.67	    17.720
   8.740        290.00	    18.655
   8.760        333.33	    20.000
   8.780        470.00	    23.749
   8.800        501.67	    24.536
   8.820        402.50	    21.977
   8.840        289.17	    18.628
   8.860        193.33	    15.232
   8.880        158.33	    13.784
   8.900        155.00	    13.638
   8.920        130.83	    12.530
   8.940        136.67	    12.806
   8.960        143.33	    13.115
   8.980        132.50	    12.610
   9.000        141.67	    13.038
   9.020        155.83	    13.675
   9.040        139.17	    12.923
   9.060        135.00	    12.728
   9.080        132.50	    12.610
   9.100        153.33	    13.565
   9.120        129.17	    12.450
   9.140        112.50	    11.619
   9.160        128.33	    12.410
   9.180        138.33	    12.884
   9.200        128.33	    12.410
   9.220        117.50	    11.874
   9.240        109.17	    11.446
   9.260        142.50	    13.077
   9.280        130.83	    12.530
   9.300        124.17	    12.207
   9.320        122.50	    12.124
   9.340        136.67	    12.806
   9.360        142.50	    13.077
   9.380        143.33	    13.115
   9.400        123.33	    12.166
   9.420        130.00	    12.490
   9.440        104.17	    11.180
   9.460        117.50	    11.874
   9.480        119.17	    11.958
   9.500        149.17	    13.379
   9.520        136.67	    12.806
   9.540        115.83	    11.790
   9.560        110.83	    11.533
   9.580        114.17	    11.705
   9.600        102.50	    11.091
   9.620        115.83	    11.790
   9.640        110.83	    11.533
   9.660        113.33	    11.662
   9.680        116.67	    11.832
   9.700        112.50	    11.619
   9.720        131.67	    12.570
   9.740        104.17	    11.180
   9.760        100.00	    10.954
   9.780        104.17	    11.180
   9.800        110.83	    11.533
   9.820        111.67	    11.576
   9.840        108.33	    11.402
   9.860         96.67	    10.770
   9.880        113.33	    11.662
   9.900        114.17	    11.705
   9.920        109.17	    11.446
   9.940        118.33	    11.916
   9.960        110.83	    11.533
   9.980        121.67	    12.083
  10.000        101.67	    11.045
  10.020        103.33	    11.136
  10.040         93.33	    10.583
  10.060        102.50	    11.091
  10.080        105.83	    11.269
  10.100         95.83	    10.724
  10.120         97.50	    10.817
  10.140        107.50	    11.358
  10.160        115.00	    11.747
  10.180        108.33	    11.402
  10.200         93.33	    10.583
  10.220        117.50	    11.874
  10.240        120.00	    12.000
  10.260        120.83	    12.042
  10.280        107.50	    11.358
  10.300        103.33	    11.136
  10.320        105.00	    11.225
  10.340        139.17	    12.923
  10.360        152.50	    13.528
  10.380        152.50	    13.528
  10.400        125.83	    12.288
  10.420        165.00	    14.071
  10.440        140.83	    13.000
  10.460        146.67	    13.266
  10.480        120.00	    12.000
  10.500        111.67	    11.576
  10.520        122.50	    12.124
  10.540        108.33	    11.402
  10.560        115.00	    11.747
  10.580        114.17	    11.705
  10.600        115.00	    11.747
  10.620        110.83	    11.533
  10.640         93.33	    10.583
  10.660        110.83	    11.533
  10.680        102.50	    11.091
  10.700         86.67	    10.198
  10.720        109.17	    11.446
  10.740         92.50	    10.536
  10.760         96.67	    10.770
  10.780        103.33	    11.136
  10.800        103.33	    11.136
  10.820        100.00	    10.954
  10.840         90.00	    10.392
  10.860         90.00	    10.392
  10.880         90.00	    10.392
  10.900        128.33	    12.410
  10.920        114.17	    11.705
  10.940        109.17	    11.446
  10.960        110.00	    11.489
  10.980         91.67	    10.488
  11.000         94.17	    10.630
  11.020         79.17	     9.747
  11.040         95.00	    10.677
  11.060         84.17	    10.050
  11.080        115.00	    11.747
  11.100         76.67	     9.592
  11.120         87.50	    10.247
  11.140        106.67	    11.314
  11.160         77.50	     9.644
  11.180         92.50	    10.536
  11.200        101.67	    11.045
  11.220        110.00	    11.489
  11.240         94.17	    10.630
  11.260         90.00	    10.392
  11.280         94.17	    10.630
  11.300        104.17	    11.180
  11.320         90.83	    10.440
  11.340         90.00	    10.392
  11.360        111.67	    11.576
  11.380         85.83	    10.149
  11.400         82.50	     9.950
  11.420         91.67	    10.488
  11.440         93.33	    10.583
  11.460        108.33	    11.402
  11.480         96.67	    10.770
  11.500        106.67	    11.314
  11.520         90.83	    10.440
  11.540         75.00	     9.487
  11.560        109.17	    11.446
  11.580         95.00	    10.677
  11.600         81.67	     9.899
  11.620         93.33	    10.583
  11.640         95.83	    10.724
  11.660         85.00	    10.100
  11.680         91.67	    10.488
  11.700        105.00	    11.225
  11.720        100.00	    10.954
  11.740        115.00	    11.747
  11.760        110.00	    11.489
  11.780         98.33	    10.863
  11.800         88.33	    10.296
  11.820        105.83	    11.269
  11.840        108.33	    11.402
  11.860         99.17	    10.909
  11.880        102.50	    11.091
  11.900        118.33	    11.916
  11.920        105.00	    11.225
  11.940        126.67	    12.329
  11.960        121.67	    12.083
  11.980        128.33	    12.410
  12.000        142.50	    13.077
  12.020        177.50	    14.595
  12.040        186.67	    14.967
  12.060        254.17	    17.464
  12.080        381.67	    21.401
  12.100        572.50	    26.211
  12.120        744.17	    29.883
  12.140        647.50	    27.875
  12.160        434.17	    22.825
  12.180        225.00	    16.432
  12.200        161.67	    13.928
  12.220        196.67	    15.362
  12.240        233.33	    16.733
  12.260        193.33	    15.232
  12.280        239.17	    16.941
  12.300        184.17	    14.866
  12.320        172.50	    14.387
  12.340        205.00	    15.684
  12.360        204.17	    15.652
  12.380        259.17	    17.635
  12.400        334.17	    20.025
  12.420        317.50	    19.519
  12.440        272.50	    18.083
  12.460        216.67	    16.125
  12.480        146.67	    13.266
  12.500         88.33	    10.296
  12.520        100.83	    11.000
  12.540        100.00	    10.954
  12.560         94.17	    10.630
  12.580         85.83	    10.149
  12.600        113.33	    11.662
  12.620         89.17	    10.344
  12.640         86.67	    10.198
  12.660         92.50	    10.536
  12.680         92.50	    10.536
  12.700         94.17	    10.630
  12.720         84.17	    10.050
  12.740         93.33	    10.583
  12.760         83.33	    10.000
  12.780         82.50	     9.950
  12.800         97.50	    10.817
  12.820         91.67	    10.488
  12.840         80.00	     9.798
  12.860         77.50	     9.644
  12.880         88.33	    10.296
  12.900         75.00	     9.487
  12.920         80.83	     9.849
  12.940         98.33	    10.863
  12.960         83.33	    10.000
  12.980        102.50	    11.091
  13.000         77.50	     9.644
  13.020         83.33	    10.000
  13.040         73.33	     9.381
  13.060         80.00	     9.798
  13.080        108.33	    11.402
  13.100         65.83	     8.888
  13.120         90.00	    10.392
  13.140         85.00	    10.100
  13.160         85.00	    10.100
  13.180         82.50	     9.950
  13.200         82.50	     9.950
  13.220         85.00	    10.100
  13.240         72.50	     9.327
  13.260         90.00	    10.392
  13.280         80.83	     9.849
  13.300         81.67	     9.899
  13.320         70.83	     9.220
  13.340         75.00	     9.487
  13.360        100.00	    10.954
  13.380         74.17	     9.434
  13.400         79.17	     9.747
  13.420         85.83	    10.149
  13.440         81.67	     9.899
  13.460         77.50	     9.644
  13.480         75.00	     9.487
  13.500         80.00	     9.798
  13.520         87.50	    10.247
  13.540         81.67	     9.899
  13.560         97.50	    10.817
  13.580        101.67	    11.045
  13.600         97.50	    10.817
  13.620         77.50	     9.644
  13.640         80.00	     9.798
  13.660         86.67	    10.198
  13.680         80.00	     9.798
  13.700         78.33	     9.695
  13.720         83.33	    10.000
  13.740         79.17	     9.747
  13.760         86.67	    10.198
  13.780         89.17	    10.344
  13.800         92.50	    10.536
  13.820         92.50	    10.536
  13.840         95.83	    10.724
  13.860        106.67	    11.314
  13.880        117.50	    11.874
  13.900        130.83	    12.530
  13.920        108.33	    11.402
  13.940        103.33	    11.136
  13.960         79.17	     9.747
  13.980         85.83	    10.149
  14.000         76.67	     9.592
  14.020         72.50	     9.327
  14.040         71.67	     9.274
  14.060         65.83	     8.888
  14.080         66.67	     8.944
  14.100         72.50	     9.327
  14.120         71.67	     9.274
  14.140         60.83	     8.544
  14.160         63.33	     8.718
  14.180         93.33	    10.583
  14.200         64.17	     8.775
  14.220         76.67	     9.592
  14.240         82.50	     9.950
  14.260         64.17	     8.775
  14.280         65.83	     8.888
  14.300         73.33	     9.381
  14.320         70.00	     9.165
  14.340         65.00	     8.832
  14.360         86.67	    10.198
  14.380         70.83	     9.220
  14.400         80.00	     9.798
