
Filename:
	C:\Program Files\Thermo Electron\WinXRD\Datafiles\F_HERMAN\GEO\G64_RT.raw

File Created:
	February 20, 2020 - 10:07 PM

Specimen Id:
	G64_RT

Specimen Name:
	

Specimen Description:
	

Comment:
Scan Type: 2Theta Scan
Start Angle: 3 deg.
Stop Angle: 65 deg.
Num Points: 3101
Step Size: 0.02 deg.
Scan Rate: 1.000000
Scan Mode: Continuous
Wavelength: 1.540562
\Kalpha1: 1.540562	\Kalpha2: 1.544390	\Kbeta: 1.392218

Optics:
		Detector:
			 Type: Fixed Slits
		Tube: 
			 Type: Fixed Slits


Datas:
 Pos [deg]       Rate [CPS]      ESD [-]

Range 1 ---> Iteration 1
   3.000        431.67	    22.760
   3.020        456.67	    23.409
   3.040        416.67	    22.361
   3.060        422.50	    22.517
   3.080        407.50	    22.113
   3.100        435.83	    22.869
   3.120        409.17	    22.159
   3.140        438.33	    22.935
   3.160        436.67	    22.891
   3.180        403.33	    22.000
   3.200        420.83	    22.472
   3.220        384.17	    21.471
   3.240        385.00	    21.494
   3.260        406.67	    22.091
   3.280        380.83	    21.378
   3.300        405.83	    22.068
   3.320        396.67	    21.817
   3.340        368.33	    21.024
   3.360        393.33	    21.726
   3.380        395.83	    21.794
   3.400        370.83	    21.095
   3.420        371.67	    21.119
   3.440        355.00	    20.640
   3.460        375.83	    21.237
   3.480        384.17	    21.471
   3.500        338.33	    20.149
   3.520        339.17	    20.174
   3.540        379.17	    21.331
   3.560        389.17	    21.610
   3.580        353.33	    20.591
   3.600        367.50	    21.000
   3.620        344.17	    20.322
   3.640        343.33	    20.298
   3.660        365.83	    20.952
   3.680        335.00	    20.050
   3.700        355.00	    20.640
   3.720        331.67	    19.950
   3.740        338.33	    20.149
   3.760        345.00	    20.347
   3.780        309.17	    19.261
   3.800        341.67	    20.248
   3.820        328.33	    19.849
   3.840        324.17	    19.723
   3.860        313.33	    19.391
   3.880        307.50	    19.209
   3.900        322.50	    19.672
   3.920        306.67	    19.183
   3.940        314.17	    19.416
   3.960        299.17	    18.947
   3.980        342.50	    20.273
   4.000        347.50	    20.421
   4.020        309.17	    19.261
   4.040        300.83	    19.000
   4.060        297.50	    18.894
   4.080        290.83	    18.682
   4.100        329.17	    19.875
   4.120        335.83	    20.075
   4.140        321.67	    19.647
   4.160        330.00	    19.900
   4.180        301.67	    19.026
   4.200        296.67	    18.868
   4.220        327.50	    19.824
   4.240        263.33	    17.776
   4.260        303.33	    19.079
   4.280        306.67	    19.183
   4.300        273.33	    18.111
   4.320        302.50	    19.053
   4.340        275.00	    18.166
   4.360        265.00	    17.833
   4.380        295.83	    18.841
   4.400        279.17	    18.303
   4.420        295.83	    18.841
   4.440        295.83	    18.841
   4.460        261.67	    17.720
   4.480        296.67	    18.868
   4.500        289.17	    18.628
   4.520        275.83	    18.193
   4.540        276.67	    18.221
   4.560        277.50	    18.248
   4.580        264.17	    17.804
   4.600        284.17	    18.466
   4.620        266.67	    17.889
   4.640        260.00	    17.664
   4.660        260.83	    17.692
   4.680        262.50	    17.748
   4.700        274.17	    18.138
   4.720        270.83	    18.028
   4.740        239.17	    16.941
   4.760        257.50	    17.578
   4.780        260.00	    17.664
   4.800        281.67	    18.385
   4.820        262.50	    17.748
   4.840        255.00	    17.493
   4.860        250.00	    17.321
   4.880        255.00	    17.493
   4.900        232.50	    16.703
   4.920        234.17	    16.763
   4.940        236.67	    16.852
   4.960        240.83	    17.000
   4.980        257.50	    17.578
   5.000        222.50	    16.340
   5.020        248.33	    17.263
   5.040        250.83	    17.349
   5.060        247.50	    17.234
   5.080        259.17	    17.635
   5.100        250.00	    17.321
   5.120        248.33	    17.263
   5.140        254.17	    17.464
   5.160        241.67	    17.029
   5.180        241.67	    17.029
   5.200        249.17	    17.292
   5.220        238.33	    16.912
   5.240        220.00	    16.248
   5.260        227.50	    16.523
   5.280        234.17	    16.763
   5.300        249.17	    17.292
   5.320        235.83	    16.823
   5.340        208.33	    15.811
   5.360        215.00	    16.062
   5.380        205.83	    15.716
   5.400        240.83	    17.000
   5.420        239.17	    16.941
   5.440        222.50	    16.340
   5.460        235.00	    16.793
   5.480        227.50	    16.523
   5.500        204.17	    15.652
   5.520        220.00	    16.248
   5.540        246.67	    17.205
   5.560        239.17	    16.941
   5.580        235.83	    16.823
   5.600        217.50	    16.155
   5.620        234.17	    16.763
   5.640        220.00	    16.248
   5.660        205.00	    15.684
   5.680        221.67	    16.310
   5.700        214.17	    16.031
   5.720        201.67	    15.556
   5.740        195.00	    15.297
   5.760        228.33	    16.553
   5.780        233.33	    16.733
   5.800        200.83	    15.524
   5.820        219.17	    16.217
   5.840        202.50	    15.588
   5.860        202.50	    15.588
   5.880        223.33	    16.371
   5.900        245.83	    17.176
   5.920        260.83	    17.692
   5.940        220.83	    16.279
   5.960        245.00	    17.146
   5.980        238.33	    16.912
   6.000        225.00	    16.432
   6.020        249.17	    17.292
   6.040        225.83	    16.462
   6.060        233.33	    16.733
   6.080        218.33	    16.186
   6.100        252.50	    17.407
   6.120        255.00	    17.493
   6.140        260.00	    17.664
   6.160        241.67	    17.029
   6.180        260.00	    17.664
   6.200        248.33	    17.263
   6.220        202.50	    15.588
   6.240        210.00	    15.875
   6.260        197.50	    15.395
   6.280        215.83	    16.093
   6.300        170.00	    14.283
   6.320        202.50	    15.588
   6.340        215.83	    16.093
   6.360        212.50	    15.969
   6.380        182.50	    14.799
   6.400        202.50	    15.588
   6.420        172.50	    14.387
   6.440        213.33	    16.000
   6.460        185.83	    14.933
   6.480        177.50	    14.595
   6.500        192.50	    15.199
   6.520        191.67	    15.166
   6.540        190.00	    15.100
   6.560        182.50	    14.799
   6.580        189.17	    15.067
   6.600        185.83	    14.933
   6.620        192.50	    15.199
   6.640        211.67	    15.937
   6.660        185.00	    14.900
   6.680        179.17	    14.663
   6.700        188.33	    15.033
   6.720        204.17	    15.652
   6.740        205.00	    15.684
   6.760        181.67	    14.765
   6.780        203.33	    15.620
   6.800        199.17	    15.460
   6.820        180.00	    14.697
   6.840        166.67	    14.142
   6.860        173.33	    14.422
   6.880        165.83	    14.107
   6.900        188.33	    15.033
   6.920        181.67	    14.765
   6.940        180.00	    14.697
   6.960        185.00	    14.900
   6.980        169.17	    14.248
   7.000        196.67	    15.362
   7.020        170.83	    14.318
   7.040        185.00	    14.900
   7.060        161.67	    13.928
   7.080        169.17	    14.248
   7.100        150.00	    13.416
   7.120        173.33	    14.422
   7.140        177.50	    14.595
   7.160        176.67	    14.560
   7.180        174.17	    14.457
   7.200        185.00	    14.900
   7.220        175.00	    14.491
   7.240        159.17	    13.820
   7.260        175.00	    14.491
   7.280        160.00	    13.856
   7.300        165.00	    14.071
   7.320        174.17	    14.457
   7.340        168.33	    14.213
   7.360        166.67	    14.142
   7.380        160.83	    13.892
   7.400        168.33	    14.213
   7.420        182.50	    14.799
   7.440        146.67	    13.266
   7.460        165.83	    14.107
   7.480        169.17	    14.248
   7.500        155.00	    13.638
   7.520        165.00	    14.071
   7.540        143.33	    13.115
   7.560        156.67	    13.711
   7.580        168.33	    14.213
   7.600        145.83	    13.229
   7.620        165.83	    14.107
   7.640        143.33	    13.115
   7.660        166.67	    14.142
   7.680        148.33	    13.342
   7.700        156.67	    13.711
   7.720        131.67	    12.570
   7.740        166.67	    14.142
   7.760        157.50	    13.748
   7.780        160.83	    13.892
   7.800        165.83	    14.107
   7.820        163.33	    14.000
   7.840        153.33	    13.565
   7.860        137.50	    12.845
   7.880        156.67	    13.711
   7.900        149.17	    13.379
   7.920        155.83	    13.675
   7.940        125.83	    12.288
   7.960        150.00	    13.416
   7.980        137.50	    12.845
   8.000        137.50	    12.845
   8.020        143.33	    13.115
   8.040        153.33	    13.565
   8.060        170.00	    14.283
   8.080        149.17	    13.379
   8.100        145.83	    13.229
   8.120        128.33	    12.410
   8.140        140.00	    12.961
   8.160        139.17	    12.923
   8.180        164.17	    14.036
   8.200        154.17	    13.601
   8.220        154.17	    13.601
   8.240        143.33	    13.115
   8.260        124.17	    12.207
   8.280        141.67	    13.038
   8.300        178.33	    14.629
   8.320        140.00	    12.961
   8.340        147.50	    13.304
   8.360        141.67	    13.038
   8.380        153.33	    13.565
   8.400        160.00	    13.856
   8.420        168.33	    14.213
   8.440        158.33	    13.784
   8.460        162.50	    13.964
   8.480        162.50	    13.964
   8.500        155.00	    13.638
   8.520        171.67	    14.353
   8.540        130.83	    12.530
   8.560        173.33	    14.422
   8.580        171.67	    14.353
   8.600        174.17	    14.457
   8.620        188.33	    15.033
   8.640        190.00	    15.100
   8.660        205.00	    15.684
   8.680        228.33	    16.553
   8.700        240.00	    16.971
   8.720        275.83	    18.193
   8.740        289.17	    18.628
   8.760        315.83	    19.468
   8.780        430.83	    22.738
   8.800        529.17	    25.199
   8.820        470.83	    23.770
   8.840        338.33	    20.149
   8.860        255.83	    17.521
   8.880        179.17	    14.663
   8.900        156.67	    13.711
   8.920        145.00	    13.191
   8.940        145.00	    13.191
   8.960        160.00	    13.856
   8.980        128.33	    12.410
   9.000        144.17	    13.153
   9.020        134.17	    12.689
   9.040        159.17	    13.820
   9.060        147.50	    13.304
   9.080        156.67	    13.711
   9.100        122.50	    12.124
   9.120        137.50	    12.845
   9.140        135.00	    12.728
   9.160        143.33	    13.115
   9.180        144.17	    13.153
   9.200        148.33	    13.342
   9.220        137.50	    12.845
   9.240        126.67	    12.329
   9.260        110.83	    11.533
   9.280        150.00	    13.416
   9.300        130.00	    12.490
   9.320        138.33	    12.884
   9.340        150.00	    13.416
   9.360        145.00	    13.191
   9.380        150.83	    13.454
   9.400        146.67	    13.266
   9.420        135.00	    12.728
   9.440        151.67	    13.491
   9.460        119.17	    11.958
   9.480        120.00	    12.000
   9.500        118.33	    11.916
   9.520        118.33	    11.916
   9.540        103.33	    11.136
   9.560        112.50	    11.619
   9.580        123.33	    12.166
   9.600         98.33	    10.863
   9.620        128.33	    12.410
   9.640        128.33	    12.410
   9.660        139.17	    12.923
   9.680        150.83	    13.454
   9.700        154.17	    13.601
   9.720        122.50	    12.124
   9.740        105.83	    11.269
   9.760        108.33	    11.402
   9.780        115.00	    11.747
   9.800        126.67	    12.329
   9.820        107.50	    11.358
   9.840        128.33	    12.410
   9.860        124.17	    12.207
   9.880        126.67	    12.329
   9.900        130.83	    12.530
   9.920        109.17	    11.446
   9.940        126.67	    12.329
   9.960        135.83	    12.767
   9.980        115.83	    11.790
  10.000        105.83	    11.269
  10.020        107.50	    11.358
  10.040         96.67	    10.770
  10.060        111.67	    11.576
  10.080        103.33	    11.136
  10.100        100.00	    10.954
  10.120        111.67	    11.576
  10.140         99.17	    10.909
  10.160        103.33	    11.136
  10.180        106.67	    11.314
  10.200         98.33	    10.863
  10.220        134.17	    12.689
  10.240        118.33	    11.916
  10.260        123.33	    12.166
  10.280        107.50	    11.358
  10.300        138.33	    12.884
  10.320         93.33	    10.583
  10.340        123.33	    12.166
  10.360        132.50	    12.610
  10.380        118.33	    11.916
  10.400        140.00	    12.961
  10.420        155.00	    13.638
  10.440        185.00	    14.900
  10.460        219.17	    16.217
  10.480        203.33	    15.620
  10.500        192.50	    15.199
  10.520        178.33	    14.629
  10.540        106.67	    11.314
  10.560        106.67	    11.314
  10.580        126.67	    12.329
  10.600        111.67	    11.576
  10.620        105.00	    11.225
  10.640        118.33	    11.916
  10.660        110.00	    11.489
  10.680        120.83	    12.042
  10.700        119.17	    11.958
  10.720        106.67	    11.314
  10.740        127.50	    12.369
  10.760        102.50	    11.091
  10.780        107.50	    11.358
  10.800        125.00	    12.247
  10.820        115.83	    11.790
  10.840        111.67	    11.576
  10.860        108.33	    11.402
  10.880        108.33	    11.402
  10.900        110.00	    11.489
  10.920        101.67	    11.045
  10.940        104.17	    11.180
  10.960        102.50	    11.091
  10.980        101.67	    11.045
  11.000        105.83	    11.269
  11.020        104.17	    11.180
  11.040        108.33	    11.402
  11.060        102.50	    11.091
  11.080        120.83	    12.042
  11.100        106.67	    11.314
  11.120        105.83	    11.269
  11.140        105.83	    11.269
  11.160        120.00	    12.000
  11.180        100.83	    11.000
  11.200        100.83	    11.000
  11.220        108.33	    11.402
  11.240        106.67	    11.314
  11.260         99.17	    10.909
  11.280         92.50	    10.536
  11.300         95.00	    10.677
  11.320        100.83	    11.000
  11.340        116.67	    11.832
  11.360        102.50	    11.091
  11.380        111.67	    11.576
  11.400         98.33	    10.863
  11.420        123.33	    12.166
  11.440         95.83	    10.724
  11.460        106.67	    11.314
  11.480        113.33	    11.662
  11.500        108.33	    11.402
  11.520        114.17	    11.705
  11.540        101.67	    11.045
  11.560        106.67	    11.314
  11.580        118.33	    11.916
  11.600        116.67	    11.832
  11.620        102.50	    11.091
  11.640        122.50	    12.124
  11.660        115.83	    11.790
  11.680        111.67	    11.576
  11.700        115.83	    11.790
  11.720        109.17	    11.446
  11.740        111.67	    11.576
  11.760        100.83	    11.000
  11.780        112.50	    11.619
  11.800         95.83	    10.724
  11.820        109.17	    11.446
  11.840         99.17	    10.909
  11.860         95.83	    10.724
  11.880        115.83	    11.790
  11.900        124.17	    12.207
  11.920        110.83	    11.533
  11.940        120.83	    12.042
  11.960        124.17	    12.207
  11.980        120.83	    12.042
  12.000        115.00	    11.747
  12.020        154.17	    13.601
  12.040        164.17	    14.036
  12.060        229.17	    16.583
  12.080        336.67	    20.100
  12.100        430.83	    22.738
  12.120        478.33	    23.958
  12.140        438.33	    22.935
  12.160        340.00	    20.199
  12.180        195.83	    15.330
  12.200        122.50	    12.124
  12.220        124.17	    12.207
  12.240        152.50	    13.528
  12.260        175.00	    14.491
  12.280        180.83	    14.731
  12.300        176.67	    14.560
  12.320        159.17	    13.820
  12.340        175.83	    14.526
  12.360        183.33	    14.832
  12.380        200.00	    15.492
  12.400        214.17	    16.031
  12.420        256.67	    17.550
  12.440        260.00	    17.664
  12.460        233.33	    16.733
  12.480        191.67	    15.166
  12.500        128.33	    12.410
  12.520        112.50	    11.619
  12.540         86.67	    10.198
  12.560         92.50	    10.536
  12.580        114.17	    11.705
  12.600         85.83	    10.149
  12.620        115.00	    11.747
  12.640         90.83	    10.440
  12.660        103.33	    11.136
  12.680         82.50	     9.950
  12.700         73.33	     9.381
  12.720         98.33	    10.863
  12.740         98.33	    10.863
  12.760         97.50	    10.817
  12.780         75.00	     9.487
  12.800        105.83	    11.269
  12.820         96.67	    10.770
  12.840         78.33	     9.695
  12.860         90.83	    10.440
  12.880         95.00	    10.677
  12.900         96.67	    10.770
  12.920         90.83	    10.440
  12.940        100.83	    11.000
  12.960         80.00	     9.798
  12.980        105.83	    11.269
  13.000         88.33	    10.296
  13.020         78.33	     9.695
  13.040         97.50	    10.817
  13.060         99.17	    10.909
  13.080         81.67	     9.899
  13.100        101.67	    11.045
  13.120        103.33	    11.136
  13.140        115.83	    11.790
  13.160        101.67	    11.045
  13.180         85.83	    10.149
  13.200         84.17	    10.050
  13.220         72.50	     9.327
  13.240         95.00	    10.677
  13.260         78.33	     9.695
  13.280        101.67	    11.045
  13.300        114.17	    11.705
  13.320         93.33	    10.583
  13.340         95.83	    10.724
  13.360         93.33	    10.583
  13.380         90.83	    10.440
  13.400         88.33	    10.296
  13.420         97.50	    10.817
  13.440         80.83	     9.849
  13.460        100.83	    11.000
  13.480        110.83	    11.533
  13.500         82.50	     9.950
  13.520         79.17	     9.747
  13.540         95.83	    10.724
  13.560        110.83	    11.533
  13.580         97.50	    10.817
  13.600         95.83	    10.724
  13.620         89.17	    10.344
  13.640         70.00	     9.165
  13.660        105.00	    11.225
  13.680         78.33	     9.695
  13.700        103.33	    11.136
  13.720        109.17	    11.446
  13.740        107.50	    11.358
  13.760        117.50	    11.874
  13.780        104.17	    11.180
  13.800        113.33	    11.662
  13.820         98.33	    10.863
  13.840         89.17	    10.344
  13.860         94.17	    10.630
  13.880         85.00	    10.100
  13.900         82.50	     9.950
  13.920         75.00	     9.487
  13.940        105.00	    11.225
  13.960         90.83	    10.440
  13.980         85.00	    10.100
  14.000         80.00	     9.798
  14.020         92.50	    10.536
  14.040         80.00	     9.798
  14.060         73.33	     9.381
  14.080         77.50	     9.644
  14.100         84.17	    10.050
  14.120         77.50	     9.644
  14.140         85.00	    10.100
  14.160         94.17	    10.630
  14.180         70.00	     9.165
  14.200         75.00	     9.487
  14.220         91.67	    10.488
  14.240         82.50	     9.950
  14.260         66.67	     8.944
  14.280         65.83	     8.888
  14.300         87.50	    10.247
  14.320         68.33	     9.055
  14.340         73.33	     9.381
  14.360         71.67	     9.274
  14.380         94.17	    10.630
  14.400         81.67	     9.899
