
Filename:
	C:\Program Files\Thermo Electron\WinXRD\Datafiles\F_HERMAN\GEO\G66_RT.raw

File Created:
	February 20, 2020 - 12:59 AM

Specimen Id:
	G66_RT

Specimen Name:
	

Specimen Description:
	

Comment:
Scan Type: 2Theta Scan
Start Angle: 3 deg.
Stop Angle: 65 deg.
Num Points: 3101
Step Size: 0.02 deg.
Scan Rate: 1.000000
Scan Mode: Continuous
Wavelength: 1.540562
\Kalpha1: 1.540562	\Kalpha2: 1.544390	\Kbeta: 1.392218

Optics:
		Detector:
			 Type: Fixed Slits
		Tube: 
			 Type: Fixed Slits


Datas:
 Pos [deg]       Rate [CPS]      ESD [-]

Range 1 ---> Iteration 1
   3.000        448.33	    23.195
   3.020        459.17	    23.473
   3.040        438.33	    22.935
   3.060        433.33	    22.804
   3.080        428.33	    22.672
   3.100        420.00	    22.450
   3.120        460.00	    23.495
   3.140        420.00	    22.450
   3.160        418.33	    22.405
   3.180        403.33	    22.000
   3.200        427.50	    22.650
   3.220        408.33	    22.136
   3.240        396.67	    21.817
   3.260        430.83	    22.738
   3.280        405.00	    22.045
   3.300        415.83	    22.338
   3.320        421.67	    22.494
   3.340        360.00	    20.785
   3.360        385.83	    21.517
   3.380        405.83	    22.068
   3.400        385.00	    21.494
   3.420        386.67	    21.541
   3.440        414.17	    22.293
   3.460        394.17	    21.749
   3.480        385.83	    21.517
   3.500        360.83	    20.809
   3.520        377.50	    21.284
   3.540        374.17	    21.190
   3.560        380.00	    21.354
   3.580        383.33	    21.448
   3.600        390.00	    21.633
   3.620        338.33	    20.149
   3.640        330.83	    19.925
   3.660        325.83	    19.774
   3.680        373.33	    21.166
   3.700        351.67	    20.543
   3.720        341.67	    20.248
   3.740        350.00	    20.494
   3.760        352.50	    20.567
   3.780        338.33	    20.149
   3.800        340.83	    20.224
   3.820        331.67	    19.950
   3.840        336.67	    20.100
   3.860        324.17	    19.723
   3.880        323.33	    19.698
   3.900        324.17	    19.723
   3.920        342.50	    20.273
   3.940        335.83	    20.075
   3.960        320.83	    19.621
   3.980        316.67	    19.494
   4.000        285.00	    18.493
   4.020        283.33	    18.439
   4.040        310.00	    19.287
   4.060        296.67	    18.868
   4.080        301.67	    19.026
   4.100        318.33	    19.545
   4.120        271.67	    18.055
   4.140        303.33	    19.079
   4.160        330.00	    19.900
   4.180        292.50	    18.735
   4.200        310.83	    19.313
   4.220        298.33	    18.921
   4.240        295.00	    18.815
   4.260        309.17	    19.261
   4.280        289.17	    18.628
   4.300        290.83	    18.682
   4.320        271.67	    18.055
   4.340        291.67	    18.708
   4.360        250.83	    17.349
   4.380        280.83	    18.358
   4.400        302.50	    19.053
   4.420        270.83	    18.028
   4.440        281.67	    18.385
   4.460        257.50	    17.578
   4.480        252.50	    17.407
   4.500        262.50	    17.748
   4.520        272.50	    18.083
   4.540        270.00	    18.000
   4.560        287.50	    18.574
   4.580        247.50	    17.234
   4.600        266.67	    17.889
   4.620        271.67	    18.055
   4.640        280.83	    18.358
   4.660        246.67	    17.205
   4.680        253.33	    17.436
   4.700        266.67	    17.889
   4.720        245.83	    17.176
   4.740        247.50	    17.234
   4.760        266.67	    17.889
   4.780        275.00	    18.166
   4.800        265.00	    17.833
   4.820        268.33	    17.944
   4.840        269.17	    17.972
   4.860        245.00	    17.146
   4.880        270.00	    18.000
   4.900        250.00	    17.321
   4.920        254.17	    17.464
   4.940        261.67	    17.720
   4.960        245.83	    17.176
   4.980        220.83	    16.279
   5.000        233.33	    16.733
   5.020        265.83	    17.861
   5.040        265.00	    17.833
   5.060        248.33	    17.263
   5.080        246.67	    17.205
   5.100        208.33	    15.811
   5.120        240.00	    16.971
   5.140        221.67	    16.310
   5.160        227.50	    16.523
   5.180        240.83	    17.000
   5.200        226.67	    16.492
   5.220        228.33	    16.553
   5.240        250.00	    17.321
   5.260        220.83	    16.279
   5.280        246.67	    17.205
   5.300        220.00	    16.248
   5.320        207.50	    15.780
   5.340        242.50	    17.059
   5.360        237.50	    16.882
   5.380        248.33	    17.263
   5.400        223.33	    16.371
   5.420        227.50	    16.523
   5.440        249.17	    17.292
   5.460        236.67	    16.852
   5.480        219.17	    16.217
   5.500        238.33	    16.912
   5.520        205.83	    15.716
   5.540        214.17	    16.031
   5.560        231.67	    16.673
   5.580        243.33	    17.088
   5.600        210.00	    15.875
   5.620        246.67	    17.205
   5.640        210.00	    15.875
   5.660        227.50	    16.523
   5.680        209.17	    15.843
   5.700        231.67	    16.673
   5.720        235.83	    16.823
   5.740        239.17	    16.941
   5.760        231.67	    16.673
   5.780        227.50	    16.523
   5.800        245.83	    17.176
   5.820        255.83	    17.521
   5.840        246.67	    17.205
   5.860        250.83	    17.349
   5.880        258.33	    17.607
   5.900        261.67	    17.720
   5.920        236.67	    16.852
   5.940        269.17	    17.972
   5.960        269.17	    17.972
   5.980        258.33	    17.607
   6.000        252.50	    17.407
   6.020        245.83	    17.176
   6.040        271.67	    18.055
   6.060        270.00	    18.000
   6.080        285.83	    18.520
   6.100        296.67	    18.868
   6.120        305.83	    19.157
   6.140        325.00	    19.748
   6.160        341.67	    20.248
   6.180        334.17	    20.025
   6.200        306.67	    19.183
   6.220        234.17	    16.763
   6.240        206.67	    15.748
   6.260        235.83	    16.823
   6.280        203.33	    15.620
   6.300        214.17	    16.031
   6.320        202.50	    15.588
   6.340        187.50	    15.000
   6.360        201.67	    15.556
   6.380        173.33	    14.422
   6.400        206.67	    15.748
   6.420        195.83	    15.330
   6.440        184.17	    14.866
   6.460        217.50	    16.155
   6.480        165.83	    14.107
   6.500        185.83	    14.933
   6.520        204.17	    15.652
   6.540        179.17	    14.663
   6.560        184.17	    14.866
   6.580        196.67	    15.362
   6.600        212.50	    15.969
   6.620        196.67	    15.362
   6.640        174.17	    14.457
   6.660        193.33	    15.232
   6.680        205.83	    15.716
   6.700        198.33	    15.427
   6.720        195.00	    15.297
   6.740        185.00	    14.900
   6.760        182.50	    14.799
   6.780        194.17	    15.264
   6.800        195.83	    15.330
   6.820        180.00	    14.697
   6.840        166.67	    14.142
   6.860        189.17	    15.067
   6.880        177.50	    14.595
   6.900        192.50	    15.199
   6.920        164.17	    14.036
   6.940        169.17	    14.248
   6.960        181.67	    14.765
   6.980        164.17	    14.036
   7.000        178.33	    14.629
   7.020        189.17	    15.067
   7.040        158.33	    13.784
   7.060        173.33	    14.422
   7.080        144.17	    13.153
   7.100        165.83	    14.107
   7.120        185.00	    14.900
   7.140        174.17	    14.457
   7.160        194.17	    15.264
   7.180        176.67	    14.560
   7.200        175.00	    14.491
   7.220        168.33	    14.213
   7.240        161.67	    13.928
   7.260        160.83	    13.892
   7.280        169.17	    14.248
   7.300        172.50	    14.387
   7.320        157.50	    13.748
   7.340        172.50	    14.387
   7.360        155.00	    13.638
   7.380        168.33	    14.213
   7.400        177.50	    14.595
   7.420        163.33	    14.000
   7.440        185.00	    14.900
   7.460        167.50	    14.177
   7.480        165.00	    14.071
   7.500        147.50	    13.304
   7.520        155.83	    13.675
   7.540        168.33	    14.213
   7.560        162.50	    13.964
   7.580        169.17	    14.248
   7.600        151.67	    13.491
   7.620        165.83	    14.107
   7.640        134.17	    12.689
   7.660        138.33	    12.884
   7.680        173.33	    14.422
   7.700        165.00	    14.071
   7.720        150.83	    13.454
   7.740        142.50	    13.077
   7.760        137.50	    12.845
   7.780        158.33	    13.784
   7.800        160.83	    13.892
   7.820        169.17	    14.248
   7.840        167.50	    14.177
   7.860        168.33	    14.213
   7.880        170.83	    14.318
   7.900        160.83	    13.892
   7.920        153.33	    13.565
   7.940        160.00	    13.856
   7.960        165.83	    14.107
   7.980        165.83	    14.107
   8.000        162.50	    13.964
   8.020        167.50	    14.177
   8.040        145.83	    13.229
   8.060        158.33	    13.784
   8.080        134.17	    12.689
   8.100        147.50	    13.304
   8.120        152.50	    13.528
   8.140        160.83	    13.892
   8.160        147.50	    13.304
   8.180        153.33	    13.565
   8.200        168.33	    14.213
   8.220        165.83	    14.107
   8.240        155.83	    13.675
   8.260        150.83	    13.454
   8.280        170.83	    14.318
   8.300        146.67	    13.266
   8.320        154.17	    13.601
   8.340        176.67	    14.560
   8.360        169.17	    14.248
   8.380        160.83	    13.892
   8.400        162.50	    13.964
   8.420        177.50	    14.595
   8.440        185.00	    14.900
   8.460        177.50	    14.595
   8.480        186.67	    14.967
   8.500        183.33	    14.832
   8.520        172.50	    14.387
   8.540        190.00	    15.100
   8.560        210.00	    15.875
   8.580        208.33	    15.811
   8.600        205.83	    15.716
   8.620        224.17	    16.401
   8.640        255.00	    17.493
   8.660        283.33	    18.439
   8.680        326.67	    19.799
   8.700        331.67	    19.950
   8.720        367.50	    21.000
   8.740        370.83	    21.095
   8.760        560.83	    25.942
   8.780        723.33	    29.462
   8.800        975.83	    34.220
   8.820       1097.50	    36.290
   8.840        946.67	    33.705
   8.860        627.50	    27.441
   8.880        320.00	    19.596
   8.900        196.67	    15.362
   8.920        187.50	    15.000
   8.940        181.67	    14.765
   8.960        180.83	    14.731
   8.980        170.83	    14.318
   9.000        163.33	    14.000
   9.020        159.17	    13.820
   9.040        160.83	    13.892
   9.060        160.00	    13.856
   9.080        203.33	    15.620
   9.100        205.00	    15.684
   9.120        182.50	    14.799
   9.140        181.67	    14.765
   9.160        147.50	    13.304
   9.180        123.33	    12.166
   9.200        138.33	    12.884
   9.220        136.67	    12.806
   9.240        150.83	    13.454
   9.260        132.50	    12.610
   9.280        135.83	    12.767
   9.300        151.67	    13.491
   9.320        142.50	    13.077
   9.340        152.50	    13.528
   9.360        146.67	    13.266
   9.380        163.33	    14.000
   9.400        148.33	    13.342
   9.420        149.17	    13.379
   9.440        131.67	    12.570
   9.460        123.33	    12.166
   9.480        130.83	    12.530
   9.500        111.67	    11.576
   9.520        123.33	    12.166
   9.540        140.00	    12.961
   9.560        106.67	    11.314
   9.580        130.00	    12.490
   9.600        132.50	    12.610
   9.620        127.50	    12.369
   9.640        106.67	    11.314
   9.660        108.33	    11.402
   9.680        133.33	    12.649
   9.700        118.33	    11.916
   9.720        105.83	    11.269
   9.740        117.50	    11.874
   9.760        106.67	    11.314
   9.780        119.17	    11.958
   9.800        128.33	    12.410
   9.820        109.17	    11.446
   9.840        128.33	    12.410
   9.860        110.00	    11.489
   9.880        116.67	    11.832
   9.900        132.50	    12.610
   9.920        104.17	    11.180
   9.940        116.67	    11.832
   9.960        130.83	    12.530
   9.980        114.17	    11.705
  10.000        117.50	    11.874
  10.020        130.00	    12.490
  10.040        126.67	    12.329
  10.060         99.17	    10.909
  10.080        120.00	    12.000
  10.100        125.00	    12.247
  10.120        106.67	    11.314
  10.140         98.33	    10.863
  10.160        101.67	    11.045
  10.180        115.83	    11.790
  10.200        122.50	    12.124
  10.220        111.67	    11.576
  10.240        115.00	    11.747
  10.260        100.83	    11.000
  10.280        109.17	    11.446
  10.300        103.33	    11.136
  10.320        120.00	    12.000
  10.340        124.17	    12.207
  10.360        116.67	    11.832
  10.380        122.50	    12.124
  10.400        121.67	    12.083
  10.420        140.00	    12.961
  10.440        144.17	    13.153
  10.460        135.83	    12.767
  10.480        113.33	    11.662
  10.500        132.50	    12.610
  10.520        111.67	    11.576
  10.540        114.17	    11.705
  10.560        112.50	    11.619
  10.580        112.50	    11.619
  10.600        104.17	    11.180
  10.620        106.67	    11.314
  10.640        115.00	    11.747
  10.660        107.50	    11.358
  10.680        113.33	    11.662
  10.700        130.00	    12.490
  10.720        103.33	    11.136
  10.740        109.17	    11.446
  10.760         83.33	    10.000
  10.780        124.17	    12.207
  10.800        105.83	    11.269
  10.820        109.17	    11.446
  10.840        107.50	    11.358
  10.860        107.50	    11.358
  10.880        116.67	    11.832
  10.900        108.33	    11.402
  10.920        115.00	    11.747
  10.940        117.50	    11.874
  10.960        110.00	    11.489
  10.980        107.50	    11.358
  11.000         90.83	    10.440
  11.020        116.67	    11.832
  11.040        125.00	    12.247
  11.060        113.33	    11.662
  11.080         98.33	    10.863
  11.100        100.83	    11.000
  11.120        107.50	    11.358
  11.140        100.83	    11.000
  11.160        121.67	    12.083
  11.180        100.00	    10.954
  11.200         89.17	    10.344
  11.220        114.17	    11.705
  11.240        109.17	    11.446
  11.260        105.83	    11.269
  11.280        104.17	    11.180
  11.300        113.33	    11.662
  11.320        107.50	    11.358
  11.340        101.67	    11.045
  11.360        106.67	    11.314
  11.380        124.17	    12.207
  11.400         96.67	    10.770
  11.420        110.00	    11.489
  11.440        105.00	    11.225
  11.460        108.33	    11.402
  11.480        105.83	    11.269
  11.500         96.67	    10.770
  11.520        114.17	    11.705
  11.540        120.83	    12.042
  11.560         95.00	    10.677
  11.580        113.33	    11.662
  11.600         94.17	    10.630
  11.620        107.50	    11.358
  11.640        100.00	    10.954
  11.660        102.50	    11.091
  11.680        110.83	    11.533
  11.700        120.83	    12.042
  11.720        107.50	    11.358
  11.740        123.33	    12.166
  11.760        125.83	    12.288
  11.780        120.00	    12.000
  11.800         90.83	    10.440
  11.820         98.33	    10.863
  11.840        124.17	    12.207
  11.860        133.33	    12.649
  11.880        123.33	    12.166
  11.900        140.83	    13.000
  11.920        132.50	    12.610
  11.940        121.67	    12.083
  11.960        130.83	    12.530
  11.980        140.83	    13.000
  12.000        154.17	    13.601
  12.020        162.50	    13.964
  12.040        196.67	    15.362
  12.060        251.67	    17.378
  12.080        304.17	    19.105
  12.100        545.83	    25.593
  12.120        972.50	    34.161
  12.140       1160.83	    37.323
  12.160       1028.33	    35.128
  12.180        637.50	    27.659
  12.200        363.33	    20.881
  12.220        225.83	    16.462
  12.240        260.83	    17.692
  12.260        260.83	    17.692
  12.280        258.33	    17.607
  12.300        258.33	    17.607
  12.320        239.17	    16.941
  12.340        269.17	    17.972
  12.360        292.50	    18.735
  12.380        305.83	    19.157
  12.400        370.83	    21.095
  12.420        376.67	    21.260
  12.440        420.83	    22.472
  12.460        376.67	    21.260
  12.480        288.33	    18.601
  12.500        184.17	    14.866
  12.520        147.50	    13.304
  12.540        115.83	    11.790
  12.560        110.00	    11.489
  12.580        110.83	    11.533
  12.600        124.17	    12.207
  12.620         98.33	    10.863
  12.640         91.67	    10.488
  12.660        104.17	    11.180
  12.680         84.17	    10.050
  12.700        102.50	    11.091
  12.720         92.50	    10.536
  12.740         90.83	    10.440
  12.760        100.00	    10.954
  12.780         87.50	    10.247
  12.800         82.50	     9.950
  12.820         90.83	    10.440
  12.840         94.17	    10.630
  12.860         80.83	     9.849
  12.880         90.83	    10.440
  12.900         90.83	    10.440
  12.920         80.00	     9.798
  12.940         89.17	    10.344
  12.960         81.67	     9.899
  12.980         72.50	     9.327
  13.000         92.50	    10.536
  13.020         80.00	     9.798
  13.040        100.83	    11.000
  13.060        105.83	    11.269
  13.080        105.83	    11.269
  13.100         80.00	     9.798
  13.120         95.00	    10.677
  13.140         85.00	    10.100
  13.160         77.50	     9.644
  13.180        105.00	    11.225
  13.200         77.50	     9.644
  13.220        101.67	    11.045
  13.240        102.50	    11.091
  13.260        102.50	    11.091
  13.280        101.67	    11.045
  13.300         95.83	    10.724
  13.320         90.83	    10.440
  13.340         80.83	     9.849
  13.360        104.17	    11.180
  13.380         90.83	    10.440
  13.400         81.67	     9.899
  13.420         87.50	    10.247
  13.440         97.50	    10.817
  13.460         91.67	    10.488
  13.480         90.83	    10.440
  13.500         95.83	    10.724
  13.520         88.33	    10.296
  13.540         80.00	     9.798
  13.560         88.33	    10.296
  13.580         75.83	     9.539
  13.600         92.50	    10.536
  13.620        118.33	    11.916
  13.640         99.17	    10.909
  13.660        106.67	    11.314
  13.680         94.17	    10.630
  13.700         70.83	     9.220
  13.720         97.50	    10.817
  13.740        111.67	    11.576
  13.760        118.33	    11.916
  13.780        147.50	    13.304
  13.800        155.83	    13.675
  13.820        120.00	    12.000
  13.840        120.83	    12.042
  13.860        109.17	    11.446
  13.880         86.67	    10.198
  13.900         92.50	    10.536
  13.920         90.83	    10.440
  13.940         90.83	    10.440
  13.960         90.83	    10.440
  13.980        109.17	    11.446
  14.000         86.67	    10.198
  14.020         85.00	    10.100
  14.040         92.50	    10.536
  14.060         77.50	     9.644
  14.080         80.00	     9.798
  14.100         79.17	     9.747
  14.120         80.00	     9.798
  14.140         82.50	     9.950
  14.160         74.17	     9.434
  14.180         69.17	     9.110
  14.200         90.00	    10.392
  14.220         88.33	    10.296
  14.240         75.00	     9.487
  14.260         67.50	     9.000
  14.280         79.17	     9.747
  14.300         79.17	     9.747
  14.320         70.83	     9.220
  14.340         94.17	    10.630
  14.360         84.17	    10.050
  14.380         70.00	     9.165
  14.400         68.33	     9.055
