
Filename:
	C:\Program Files\Thermo Electron\WinXRD\Datafiles\F_HERMAN\GEO\G67_RT.raw

File Created:
	February 20, 2020 - 02:01 AM

Specimen Id:
	G67_RT

Specimen Name:
	

Specimen Description:
	

Comment:
Scan Type: 2Theta Scan
Start Angle: 3 deg.
Stop Angle: 65 deg.
Num Points: 3101
Step Size: 0.02 deg.
Scan Rate: 1.000000
Scan Mode: Continuous
Wavelength: 1.540562
\Kalpha1: 1.540562	\Kalpha2: 1.544390	\Kbeta: 1.392218

Optics:
		Detector:
			 Type: Fixed Slits
		Tube: 
			 Type: Fixed Slits


Datas:
 Pos [deg]       Rate [CPS]      ESD [-]

Range 1 ---> Iteration 1
   3.000        475.00	    23.875
   3.020        425.83	    22.605
   3.040        455.83	    23.388
   3.060        430.83	    22.738
   3.080        479.17	    23.979
   3.100        408.33	    22.136
   3.120        411.67	    22.226
   3.140        410.00	    22.181
   3.160        377.50	    21.284
   3.180        424.17	    22.561
   3.200        440.00	    22.978
   3.220        395.83	    21.794
   3.240        418.33	    22.405
   3.260        380.83	    21.378
   3.280        418.33	    22.405
   3.300        378.33	    21.307
   3.320        420.00	    22.450
   3.340        409.17	    22.159
   3.360        398.33	    21.863
   3.380        400.00	    21.909
   3.400        385.00	    21.494
   3.420        399.17	    21.886
   3.440        371.67	    21.119
   3.460        382.50	    21.424
   3.480        380.00	    21.354
   3.500        350.00	    20.494
   3.520        375.83	    21.237
   3.540        345.83	    20.372
   3.560        368.33	    21.024
   3.580        355.83	    20.664
   3.600        353.33	    20.591
   3.620        365.83	    20.952
   3.640        350.83	    20.518
   3.660        335.00	    20.050
   3.680        355.83	    20.664
   3.700        345.00	    20.347
   3.720        353.33	    20.591
   3.740        358.33	    20.736
   3.760        328.33	    19.849
   3.780        361.67	    20.833
   3.800        384.17	    21.471
   3.820        310.83	    19.313
   3.840        338.33	    20.149
   3.860        335.83	    20.075
   3.880        295.83	    18.841
   3.900        330.00	    19.900
   3.920        300.83	    19.000
   3.940        310.83	    19.313
   3.960        289.17	    18.628
   3.980        318.33	    19.545
   4.000        303.33	    19.079
   4.020        302.50	    19.053
   4.040        318.33	    19.545
   4.060        304.17	    19.105
   4.080        333.33	    20.000
   4.100        311.67	    19.339
   4.120        309.17	    19.261
   4.140        300.00	    18.974
   4.160        295.00	    18.815
   4.180        324.17	    19.723
   4.200        301.67	    19.026
   4.220        332.50	    19.975
   4.240        314.17	    19.416
   4.260        305.83	    19.157
   4.280        286.67	    18.547
   4.300        289.17	    18.628
   4.320        287.50	    18.574
   4.340        274.17	    18.138
   4.360        291.67	    18.708
   4.380        287.50	    18.574
   4.400        300.83	    19.000
   4.420        256.67	    17.550
   4.440        266.67	    17.889
   4.460        287.50	    18.574
   4.480        280.00	    18.330
   4.500        279.17	    18.303
   4.520        276.67	    18.221
   4.540        255.83	    17.521
   4.560        276.67	    18.221
   4.580        275.00	    18.166
   4.600        267.50	    17.916
   4.620        264.17	    17.804
   4.640        266.67	    17.889
   4.660        265.00	    17.833
   4.680        257.50	    17.578
   4.700        264.17	    17.804
   4.720        273.33	    18.111
   4.740        262.50	    17.748
   4.760        260.00	    17.664
   4.780        257.50	    17.578
   4.800        275.83	    18.193
   4.820        273.33	    18.111
   4.840        244.17	    17.117
   4.860        234.17	    16.763
   4.880        241.67	    17.029
   4.900        271.67	    18.055
   4.920        232.50	    16.703
   4.940        245.83	    17.176
   4.960        265.83	    17.861
   4.980        240.83	    17.000
   5.000        254.17	    17.464
   5.020        225.00	    16.432
   5.040        231.67	    16.673
   5.060        234.17	    16.763
   5.080        204.17	    15.652
   5.100        230.00	    16.613
   5.120        225.83	    16.462
   5.140        234.17	    16.763
   5.160        245.00	    17.146
   5.180        207.50	    15.780
   5.200        290.83	    18.682
   5.220        241.67	    17.029
   5.240        239.17	    16.941
   5.260        225.83	    16.462
   5.280        254.17	    17.464
   5.300        197.50	    15.395
   5.320        237.50	    16.882
   5.340        265.83	    17.861
   5.360        245.00	    17.146
   5.380        212.50	    15.969
   5.400        250.00	    17.321
   5.420        256.67	    17.550
   5.440        230.00	    16.613
   5.460        200.00	    15.492
   5.480        220.83	    16.279
   5.500        217.50	    16.155
   5.520        195.83	    15.330
   5.540        215.00	    16.062
   5.560        201.67	    15.556
   5.580        208.33	    15.811
   5.600        211.67	    15.937
   5.620        204.17	    15.652
   5.640        230.83	    16.643
   5.660        242.50	    17.059
   5.680        205.83	    15.716
   5.700        231.67	    16.673
   5.720        224.17	    16.401
   5.740        200.83	    15.524
   5.760        234.17	    16.763
   5.780        209.17	    15.843
   5.800        241.67	    17.029
   5.820        243.33	    17.088
   5.840        215.00	    16.062
   5.860        210.83	    15.906
   5.880        226.67	    16.492
   5.900        225.83	    16.462
   5.920        249.17	    17.292
   5.940        255.00	    17.493
   5.960        218.33	    16.186
   5.980        256.67	    17.550
   6.000        246.67	    17.205
   6.020        242.50	    17.059
   6.040        223.33	    16.371
   6.060        255.83	    17.521
   6.080        279.17	    18.303
   6.100        276.67	    18.221
   6.120        298.33	    18.921
   6.140        316.67	    19.494
   6.160        283.33	    18.439
   6.180        270.83	    18.028
   6.200        237.50	    16.882
   6.220        204.17	    15.652
   6.240        205.83	    15.716
   6.260        215.83	    16.093
   6.280        187.50	    15.000
   6.300        214.17	    16.031
   6.320        200.00	    15.492
   6.340        192.50	    15.199
   6.360        195.00	    15.297
   6.380        199.17	    15.460
   6.400        210.00	    15.875
   6.420        176.67	    14.560
   6.440        189.17	    15.067
   6.460        204.17	    15.652
   6.480        193.33	    15.232
   6.500        190.00	    15.100
   6.520        212.50	    15.969
   6.540        181.67	    14.765
   6.560        170.83	    14.318
   6.580        193.33	    15.232
   6.600        206.67	    15.748
   6.620        181.67	    14.765
   6.640        168.33	    14.213
   6.660        184.17	    14.866
   6.680        169.17	    14.248
   6.700        179.17	    14.663
   6.720        188.33	    15.033
   6.740        158.33	    13.784
   6.760        200.00	    15.492
   6.780        170.00	    14.283
   6.800        202.50	    15.588
   6.820        172.50	    14.387
   6.840        203.33	    15.620
   6.860        170.83	    14.318
   6.880        158.33	    13.784
   6.900        185.83	    14.933
   6.920        198.33	    15.427
   6.940        183.33	    14.832
   6.960        184.17	    14.866
   6.980        188.33	    15.033
   7.000        153.33	    13.565
   7.020        172.50	    14.387
   7.040        159.17	    13.820
   7.060        174.17	    14.457
   7.080        178.33	    14.629
   7.100        168.33	    14.213
   7.120        184.17	    14.866
   7.140        151.67	    13.491
   7.160        160.83	    13.892
   7.180        163.33	    14.000
   7.200        165.83	    14.107
   7.220        160.83	    13.892
   7.240        174.17	    14.457
   7.260        164.17	    14.036
   7.280        182.50	    14.799
   7.300        189.17	    15.067
   7.320        164.17	    14.036
   7.340        150.83	    13.454
   7.360        165.83	    14.107
   7.380        156.67	    13.711
   7.400        162.50	    13.964
   7.420        165.83	    14.107
   7.440        170.00	    14.283
   7.460        160.00	    13.856
   7.480        150.83	    13.454
   7.500        160.00	    13.856
   7.520        143.33	    13.115
   7.540        156.67	    13.711
   7.560        151.67	    13.491
   7.580        163.33	    14.000
   7.600        173.33	    14.422
   7.620        138.33	    12.884
   7.640        141.67	    13.038
   7.660        156.67	    13.711
   7.680        138.33	    12.884
   7.700        151.67	    13.491
   7.720        163.33	    14.000
   7.740        164.17	    14.036
   7.760        175.83	    14.526
   7.780        159.17	    13.820
   7.800        139.17	    12.923
   7.820        150.00	    13.416
   7.840        151.67	    13.491
   7.860        155.83	    13.675
   7.880        144.17	    13.153
   7.900        130.00	    12.490
   7.920        162.50	    13.964
   7.940        138.33	    12.884
   7.960        144.17	    13.153
   7.980        146.67	    13.266
   8.000        132.50	    12.610
   8.020        145.83	    13.229
   8.040        165.83	    14.107
   8.060        137.50	    12.845
   8.080        163.33	    14.000
   8.100        168.33	    14.213
   8.120        144.17	    13.153
   8.140        144.17	    13.153
   8.160        153.33	    13.565
   8.180        164.17	    14.036
   8.200        140.83	    13.000
   8.220        154.17	    13.601
   8.240        152.50	    13.528
   8.260        160.83	    13.892
   8.280        145.83	    13.229
   8.300        140.83	    13.000
   8.320        144.17	    13.153
   8.340        135.00	    12.728
   8.360        148.33	    13.342
   8.380        140.83	    13.000
   8.400        164.17	    14.036
   8.420        157.50	    13.748
   8.440        165.83	    14.107
   8.460        156.67	    13.711
   8.480        163.33	    14.000
   8.500        165.00	    14.071
   8.520        170.83	    14.318
   8.540        163.33	    14.000
   8.560        179.17	    14.663
   8.580        170.00	    14.283
   8.600        209.17	    15.843
   8.620        183.33	    14.832
   8.640        198.33	    15.427
   8.660        230.00	    16.613
   8.680        239.17	    16.941
   8.700        262.50	    17.748
   8.720        249.17	    17.292
   8.740        320.00	    19.596
   8.760        418.33	    22.405
   8.780        514.17	    24.839
   8.800        620.83	    27.295
   8.820        625.83	    27.404
   8.840        491.67	    24.290
   8.860        329.17	    19.875
   8.880        204.17	    15.652
   8.900        161.67	    13.928
   8.920        176.67	    14.560
   8.940        157.50	    13.748
   8.960        147.50	    13.304
   8.980        150.83	    13.454
   9.000        138.33	    12.884
   9.020        149.17	    13.379
   9.040        154.17	    13.601
   9.060        160.00	    13.856
   9.080        181.67	    14.765
   9.100        194.17	    15.264
   9.120        175.83	    14.526
   9.140        155.00	    13.638
   9.160        141.67	    13.038
   9.180        106.67	    11.314
   9.200        146.67	    13.266
   9.220        135.00	    12.728
   9.240        114.17	    11.705
   9.260        128.33	    12.410
   9.280        131.67	    12.570
   9.300        130.83	    12.530
   9.320        165.00	    14.071
   9.340        140.00	    12.961
   9.360        137.50	    12.845
   9.380        136.67	    12.806
   9.400        126.67	    12.329
   9.420        134.17	    12.689
   9.440        130.83	    12.530
   9.460        140.83	    13.000
   9.480        130.83	    12.530
   9.500        118.33	    11.916
   9.520        108.33	    11.402
   9.540        133.33	    12.649
   9.560        123.33	    12.166
   9.580        133.33	    12.649
   9.600        102.50	    11.091
   9.620        102.50	    11.091
   9.640        120.83	    12.042
   9.660        130.00	    12.490
   9.680        120.00	    12.000
   9.700        128.33	    12.410
   9.720        111.67	    11.576
   9.740        127.50	    12.369
   9.760        114.17	    11.705
   9.780        117.50	    11.874
   9.800        108.33	    11.402
   9.820        113.33	    11.662
   9.840        140.83	    13.000
   9.860        130.83	    12.530
   9.880        116.67	    11.832
   9.900        113.33	    11.662
   9.920        126.67	    12.329
   9.940        106.67	    11.314
   9.960        105.00	    11.225
   9.980        122.50	    12.124
  10.000        135.83	    12.767
  10.020        109.17	    11.446
  10.040        108.33	    11.402
  10.060        121.67	    12.083
  10.080        120.00	    12.000
  10.100        116.67	    11.832
  10.120         94.17	    10.630
  10.140        124.17	    12.207
  10.160         96.67	    10.770
  10.180        108.33	    11.402
  10.200        112.50	    11.619
  10.220        115.83	    11.790
  10.240        109.17	    11.446
  10.260        114.17	    11.705
  10.280        107.50	    11.358
  10.300        123.33	    12.166
  10.320        105.00	    11.225
  10.340        131.67	    12.570
  10.360        146.67	    13.266
  10.380        147.50	    13.304
  10.400        165.83	    14.107
  10.420        195.00	    15.297
  10.440        222.50	    16.340
  10.460        240.00	    16.971
  10.480        200.83	    15.524
  10.500        165.83	    14.107
  10.520        135.83	    12.767
  10.540        113.33	    11.662
  10.560        121.67	    12.083
  10.580        127.50	    12.369
  10.600        104.17	    11.180
  10.620         88.33	    10.296
  10.640        115.00	    11.747
  10.660        107.50	    11.358
  10.680        109.17	    11.446
  10.700        110.00	    11.489
  10.720        115.00	    11.747
  10.740        101.67	    11.045
  10.760         90.83	    10.440
  10.780        105.83	    11.269
  10.800        109.17	    11.446
  10.820         96.67	    10.770
  10.840        110.00	    11.489
  10.860         93.33	    10.583
  10.880         95.83	    10.724
  10.900        110.83	    11.533
  10.920        115.83	    11.790
  10.940        111.67	    11.576
  10.960         96.67	    10.770
  10.980        107.50	    11.358
  11.000         93.33	    10.583
  11.020        122.50	    12.124
  11.040        103.33	    11.136
  11.060         98.33	    10.863
  11.080        100.83	    11.000
  11.100         97.50	    10.817
  11.120        100.83	    11.000
  11.140         90.00	    10.392
  11.160        105.00	    11.225
  11.180         95.00	    10.677
  11.200        121.67	    12.083
  11.220         97.50	    10.817
  11.240         97.50	    10.817
  11.260        105.00	    11.225
  11.280        100.83	    11.000
  11.300         93.33	    10.583
  11.320        101.67	    11.045
  11.340        106.67	    11.314
  11.360         95.83	    10.724
  11.380        105.83	    11.269
  11.400         95.00	    10.677
  11.420        109.17	    11.446
  11.440        101.67	    11.045
  11.460         96.67	    10.770
  11.480         86.67	    10.198
  11.500        105.83	    11.269
  11.520        109.17	    11.446
  11.540        106.67	    11.314
  11.560        113.33	    11.662
  11.580        114.17	    11.705
  11.600        105.00	    11.225
  11.620        110.83	    11.533
  11.640         95.83	    10.724
  11.660        112.50	    11.619
  11.680         89.17	    10.344
  11.700        109.17	    11.446
  11.720        108.33	    11.402
  11.740        102.50	    11.091
  11.760        113.33	    11.662
  11.780        108.33	    11.402
  11.800        126.67	    12.329
  11.820         92.50	    10.536
  11.840        125.83	    12.288
  11.860        120.00	    12.000
  11.880        130.83	    12.530
  11.900        116.67	    11.832
  11.920        126.67	    12.329
  11.940        122.50	    12.124
  11.960        135.83	    12.767
  11.980        135.00	    12.728
  12.000        139.17	    12.923
  12.020        175.83	    14.526
  12.040        191.67	    15.166
  12.060        238.33	    16.912
  12.080        298.33	    18.921
  12.100        424.17	    22.561
  12.120        527.50	    25.159
  12.140        512.50	    24.799
  12.160        371.67	    21.119
  12.180        265.00	    17.833
  12.200        210.00	    15.875
  12.220        175.00	    14.491
  12.240        211.67	    15.937
  12.260        217.50	    16.155
  12.280        235.00	    16.793
  12.300        245.83	    17.176
  12.320        243.33	    17.088
  12.340        208.33	    15.811
  12.360        202.50	    15.588
  12.380        260.00	    17.664
  12.400        287.50	    18.574
  12.420        330.00	    19.900
  12.440        340.83	    20.224
  12.460        275.83	    18.193
  12.480        194.17	    15.264
  12.500        150.83	    13.454
  12.520        130.83	    12.530
  12.540        107.50	    11.358
  12.560        106.67	    11.314
  12.580         93.33	    10.583
  12.600        104.17	    11.180
  12.620         90.83	    10.440
  12.640         90.00	    10.392
  12.660         89.17	    10.344
  12.680         85.00	    10.100
  12.700        102.50	    11.091
  12.720        112.50	    11.619
  12.740        106.67	    11.314
  12.760         93.33	    10.583
  12.780         87.50	    10.247
  12.800        109.17	    11.446
  12.820         87.50	    10.247
  12.840        106.67	    11.314
  12.860         90.83	    10.440
  12.880         95.00	    10.677
  12.900         63.33	     8.718
  12.920         98.33	    10.863
  12.940         76.67	     9.592
  12.960         88.33	    10.296
  12.980         97.50	    10.817
  13.000         75.00	     9.487
  13.020         95.83	    10.724
  13.040         82.50	     9.950
  13.060         88.33	    10.296
  13.080        103.33	    11.136
  13.100         96.67	    10.770
  13.120         77.50	     9.644
  13.140         79.17	     9.747
  13.160         91.67	    10.488
  13.180         97.50	    10.817
  13.200         88.33	    10.296
  13.220         85.00	    10.100
  13.240         90.83	    10.440
  13.260         95.00	    10.677
  13.280         87.50	    10.247
  13.300        102.50	    11.091
  13.320        108.33	    11.402
  13.340         99.17	    10.909
  13.360         74.17	     9.434
  13.380         81.67	     9.899
  13.400         90.00	    10.392
  13.420         90.00	    10.392
  13.440         90.00	    10.392
  13.460         85.83	    10.149
  13.480         90.00	    10.392
  13.500         79.17	     9.747
  13.520         96.67	    10.770
  13.540         89.17	    10.344
  13.560        117.50	    11.874
  13.580        112.50	    11.619
  13.600         87.50	    10.247
  13.620         71.67	     9.274
  13.640         79.17	     9.747
  13.660         65.83	     8.888
  13.680         86.67	    10.198
  13.700         97.50	    10.817
  13.720        100.83	    11.000
  13.740        119.17	    11.958
  13.760        197.50	    15.395
  13.780        226.67	    16.492
  13.800        215.00	    16.062
  13.820        193.33	    15.232
  13.840        130.00	    12.490
  13.860        106.67	    11.314
  13.880        106.67	    11.314
  13.900        109.17	    11.446
  13.920         84.17	    10.050
  13.940         99.17	    10.909
  13.960         84.17	    10.050
  13.980         90.83	    10.440
  14.000         83.33	    10.000
  14.020        101.67	    11.045
  14.040         91.67	    10.488
  14.060         97.50	    10.817
  14.080         95.83	    10.724
  14.100        100.00	    10.954
  14.120         99.17	    10.909
  14.140         82.50	     9.950
  14.160         79.17	     9.747
  14.180         73.33	     9.381
  14.200         72.50	     9.327
  14.220         67.50	     9.000
  14.240         91.67	    10.488
  14.260         82.50	     9.950
  14.280         79.17	     9.747
  14.300         76.67	     9.592
  14.320         80.00	     9.798
  14.340         75.83	     9.539
  14.360         77.50	     9.644
  14.380         81.67	     9.899
  14.400         78.33	     9.695
