
Filename:
	C:\Program Files\Thermo Electron\WinXRD\Datafiles\F_HERMAN\GEO\G68_RT.raw

File Created:
	February 20, 2020 - 11:09 PM

Specimen Id:
	G68_RT

Specimen Name:
	

Specimen Description:
	

Comment:
Scan Type: 2Theta Scan
Start Angle: 3 deg.
Stop Angle: 65 deg.
Num Points: 3101
Step Size: 0.02 deg.
Scan Rate: 1.000000
Scan Mode: Continuous
Wavelength: 1.540562
\Kalpha1: 1.540562	\Kalpha2: 1.544390	\Kbeta: 1.392218

Optics:
		Detector:
			 Type: Fixed Slits
		Tube: 
			 Type: Fixed Slits


Datas:
 Pos [deg]       Rate [CPS]      ESD [-]

Range 1 ---> Iteration 1
   3.000        475.00	    23.875
   3.020        463.33	    23.580
   3.040        519.17	    24.960
   3.060        517.50	    24.920
   3.080        470.00	    23.749
   3.100        479.17	    23.979
   3.120        472.50	    23.812
   3.140        431.67	    22.760
   3.160        456.67	    23.409
   3.180        472.50	    23.812
   3.200        444.17	    23.087
   3.220        445.00	    23.108
   3.240        473.33	    23.833
   3.260        459.17	    23.473
   3.280        466.67	    23.664
   3.300        443.33	    23.065
   3.320        457.50	    23.431
   3.340        447.50	    23.173
   3.360        424.17	    22.561
   3.380        453.33	    23.324
   3.400        437.50	    22.913
   3.420        409.17	    22.159
   3.440        410.83	    22.204
   3.460        395.83	    21.794
   3.480        391.67	    21.679
   3.500        412.50	    22.249
   3.520        389.17	    21.610
   3.540        407.50	    22.113
   3.560        410.00	    22.181
   3.580        378.33	    21.307
   3.600        396.67	    21.817
   3.620        403.33	    22.000
   3.640        401.67	    21.954
   3.660        365.83	    20.952
   3.680        406.67	    22.091
   3.700        365.83	    20.952
   3.720        353.33	    20.591
   3.740        381.67	    21.401
   3.760        355.00	    20.640
   3.780        354.17	    20.616
   3.800        357.50	    20.712
   3.820        374.17	    21.190
   3.840        358.33	    20.736
   3.860        368.33	    21.024
   3.880        350.00	    20.494
   3.900        357.50	    20.712
   3.920        361.67	    20.833
   3.940        373.33	    21.166
   3.960        371.67	    21.119
   3.980        351.67	    20.543
   4.000        337.50	    20.125
   4.020        369.17	    21.048
   4.040        325.00	    19.748
   4.060        332.50	    19.975
   4.080        311.67	    19.339
   4.100        345.83	    20.372
   4.120        376.67	    21.260
   4.140        315.00	    19.442
   4.160        339.17	    20.174
   4.180        344.17	    20.322
   4.200        300.00	    18.974
   4.220        291.67	    18.708
   4.240        320.00	    19.596
   4.260        308.33	    19.235
   4.280        301.67	    19.026
   4.300        328.33	    19.849
   4.320        308.33	    19.235
   4.340        319.17	    19.570
   4.360        310.83	    19.313
   4.380        306.67	    19.183
   4.400        322.50	    19.672
   4.420        327.50	    19.824
   4.440        294.17	    18.788
   4.460        315.00	    19.442
   4.480        302.50	    19.053
   4.500        301.67	    19.026
   4.520        278.33	    18.276
   4.540        307.50	    19.209
   4.560        258.33	    17.607
   4.580        284.17	    18.466
   4.600        270.00	    18.000
   4.620        303.33	    19.079
   4.640        297.50	    18.894
   4.660        295.83	    18.841
   4.680        277.50	    18.248
   4.700        290.83	    18.682
   4.720        272.50	    18.083
   4.740        321.67	    19.647
   4.760        260.83	    17.692
   4.780        265.00	    17.833
   4.800        278.33	    18.276
   4.820        253.33	    17.436
   4.840        285.00	    18.493
   4.860        264.17	    17.804
   4.880        264.17	    17.804
   4.900        265.00	    17.833
   4.920        270.83	    18.028
   4.940        284.17	    18.466
   4.960        289.17	    18.628
   4.980        270.83	    18.028
   5.000        265.00	    17.833
   5.020        288.33	    18.601
   5.040        263.33	    17.776
   5.060        270.00	    18.000
   5.080        264.17	    17.804
   5.100        268.33	    17.944
   5.120        260.00	    17.664
   5.140        232.50	    16.703
   5.160        250.00	    17.321
   5.180        245.83	    17.176
   5.200        290.00	    18.655
   5.220        287.50	    18.574
   5.240        257.50	    17.578
   5.260        265.83	    17.861
   5.280        266.67	    17.889
   5.300        257.50	    17.578
   5.320        249.17	    17.292
   5.340        257.50	    17.578
   5.360        254.17	    17.464
   5.380        270.83	    18.028
   5.400        263.33	    17.776
   5.420        245.83	    17.176
   5.440        261.67	    17.720
   5.460        237.50	    16.882
   5.480        260.83	    17.692
   5.500        272.50	    18.083
   5.520        273.33	    18.111
   5.540        243.33	    17.088
   5.560        247.50	    17.234
   5.580        260.00	    17.664
   5.600        291.67	    18.708
   5.620        248.33	    17.263
   5.640        272.50	    18.083
   5.660        288.33	    18.601
   5.680        290.00	    18.655
   5.700        355.00	    20.640
   5.720        341.67	    20.248
   5.740        354.17	    20.616
   5.760        360.00	    20.785
   5.780        420.83	    22.472
   5.800        455.83	    23.388
   5.820        459.17	    23.473
   5.840        399.17	    21.886
   5.860        370.00	    21.071
   5.880        354.17	    20.616
   5.900        388.33	    21.587
   5.920        360.83	    20.809
   5.940        404.17	    22.023
   5.960        462.50	    23.558
   5.980        514.17	    24.839
   6.000        535.83	    25.357
   6.020        521.67	    25.020
   6.040        482.50	    24.062
   6.060        507.50	    24.678
   6.080        397.50	    21.840
   6.100        330.83	    19.925
   6.120        273.33	    18.111
   6.140        238.33	    16.912
   6.160        259.17	    17.635
   6.180        273.33	    18.111
   6.200        230.83	    16.643
   6.220        235.00	    16.793
   6.240        229.17	    16.583
   6.260        221.67	    16.310
   6.280        236.67	    16.852
   6.300        215.83	    16.093
   6.320        215.00	    16.062
   6.340        204.17	    15.652
   6.360        200.83	    15.524
   6.380        213.33	    16.000
   6.400        215.00	    16.062
   6.420        217.50	    16.155
   6.440        214.17	    16.031
   6.460        235.00	    16.793
   6.480        220.00	    16.248
   6.500        236.67	    16.852
   6.520        199.17	    15.460
   6.540        195.83	    15.330
   6.560        222.50	    16.340
   6.580        202.50	    15.588
   6.600        215.83	    16.093
   6.620        185.83	    14.933
   6.640        212.50	    15.969
   6.660        170.00	    14.283
   6.680        215.00	    16.062
   6.700        203.33	    15.620
   6.720        185.00	    14.900
   6.740        190.00	    15.100
   6.760        220.83	    16.279
   6.780        198.33	    15.427
   6.800        207.50	    15.780
   6.820        203.33	    15.620
   6.840        179.17	    14.663
   6.860        199.17	    15.460
   6.880        198.33	    15.427
   6.900        203.33	    15.620
   6.920        205.83	    15.716
   6.940        185.00	    14.900
   6.960        175.83	    14.526
   6.980        190.83	    15.133
   7.000        197.50	    15.395
   7.020        190.83	    15.133
   7.040        190.83	    15.133
   7.060        195.83	    15.330
   7.080        178.33	    14.629
   7.100        172.50	    14.387
   7.120        199.17	    15.460
   7.140        161.67	    13.928
   7.160        184.17	    14.866
   7.180        179.17	    14.663
   7.200        180.00	    14.697
   7.220        189.17	    15.067
   7.240        187.50	    15.000
   7.260        193.33	    15.232
   7.280        174.17	    14.457
   7.300        182.50	    14.799
   7.320        172.50	    14.387
   7.340        160.00	    13.856
   7.360        180.83	    14.731
   7.380        165.83	    14.107
   7.400        166.67	    14.142
   7.420        172.50	    14.387
   7.440        193.33	    15.232
   7.460        162.50	    13.964
   7.480        195.00	    15.297
   7.500        173.33	    14.422
   7.520        175.83	    14.526
   7.540        175.00	    14.491
   7.560        185.00	    14.900
   7.580        178.33	    14.629
   7.600        179.17	    14.663
   7.620        164.17	    14.036
   7.640        159.17	    13.820
   7.660        165.00	    14.071
   7.680        178.33	    14.629
   7.700        171.67	    14.353
   7.720        173.33	    14.422
   7.740        165.00	    14.071
   7.760        167.50	    14.177
   7.780        186.67	    14.967
   7.800        175.83	    14.526
   7.820        141.67	    13.038
   7.840        160.00	    13.856
   7.860        170.83	    14.318
   7.880        164.17	    14.036
   7.900        169.17	    14.248
   7.920        156.67	    13.711
   7.940        175.83	    14.526
   7.960        162.50	    13.964
   7.980        161.67	    13.928
   8.000        171.67	    14.353
   8.020        160.00	    13.856
   8.040        158.33	    13.784
   8.060        174.17	    14.457
   8.080        165.83	    14.107
   8.100        158.33	    13.784
   8.120        186.67	    14.967
   8.140        170.00	    14.283
   8.160        146.67	    13.266
   8.180        169.17	    14.248
   8.200        169.17	    14.248
   8.220        160.00	    13.856
   8.240        152.50	    13.528
   8.260        169.17	    14.248
   8.280        165.00	    14.071
   8.300        162.50	    13.964
   8.320        163.33	    14.000
   8.340        160.83	    13.892
   8.360        175.00	    14.491
   8.380        180.00	    14.697
   8.400        191.67	    15.166
   8.420        191.67	    15.166
   8.440        194.17	    15.264
   8.460        204.17	    15.652
   8.480        210.83	    15.906
   8.500        208.33	    15.811
   8.520        222.50	    16.340
   8.540        280.00	    18.330
   8.560        250.83	    17.349
   8.580        289.17	    18.628
   8.600        351.67	    20.543
   8.620        397.50	    21.840
   8.640        403.33	    22.000
   8.660        549.17	    25.671
   8.680        844.17	    31.828
   8.700       1025.00	    35.071
   8.720        900.00	    32.863
   8.740        571.67	    26.192
   8.760        307.50	    19.209
   8.780        222.50	    16.340
   8.800        174.17	    14.457
   8.820        181.67	    14.765
   8.840        182.50	    14.799
   8.860        173.33	    14.422
   8.880        170.00	    14.283
   8.900        172.50	    14.387
   8.920        145.00	    13.191
   8.940        179.17	    14.663
   8.960        156.67	    13.711
   8.980        161.67	    13.928
   9.000        172.50	    14.387
   9.020        185.00	    14.900
   9.040        153.33	    13.565
   9.060        131.67	    12.570
   9.080        145.00	    13.191
   9.100        135.83	    12.767
   9.120        138.33	    12.884
   9.140        148.33	    13.342
   9.160        153.33	    13.565
   9.180        144.17	    13.153
   9.200        158.33	    13.784
   9.220        195.83	    15.330
   9.240        211.67	    15.937
   9.260        239.17	    16.941
   9.280        275.83	    18.193
   9.300        217.50	    16.155
   9.320        177.50	    14.595
   9.340        127.50	    12.369
   9.360        138.33	    12.884
   9.380        136.67	    12.806
   9.400        118.33	    11.916
   9.420        124.17	    12.207
   9.440        120.83	    12.042
   9.460        117.50	    11.874
   9.480        130.83	    12.530
   9.500        112.50	    11.619
   9.520        141.67	    13.038
   9.540        163.33	    14.000
   9.560        136.67	    12.806
   9.580        132.50	    12.610
   9.600        144.17	    13.153
   9.620        123.33	    12.166
   9.640        137.50	    12.845
   9.660        149.17	    13.379
   9.680        124.17	    12.207
   9.700        129.17	    12.450
   9.720        120.83	    12.042
   9.740        108.33	    11.402
   9.760        117.50	    11.874
   9.780        112.50	    11.619
   9.800        126.67	    12.329
   9.820        124.17	    12.207
   9.840        124.17	    12.207
   9.860        138.33	    12.884
   9.880        131.67	    12.570
   9.900        127.50	    12.369
   9.920        123.33	    12.166
   9.940        121.67	    12.083
   9.960        120.00	    12.000
   9.980        140.00	    12.961
  10.000        115.83	    11.790
  10.020        119.17	    11.958
  10.040        117.50	    11.874
  10.060        115.00	    11.747
  10.080        105.83	    11.269
  10.100        118.33	    11.916
  10.120        122.50	    12.124
  10.140        130.00	    12.490
  10.160        128.33	    12.410
  10.180        119.17	    11.958
  10.200        146.67	    13.266
  10.220        136.67	    12.806
  10.240        155.83	    13.675
  10.260        178.33	    14.629
  10.280        184.17	    14.866
  10.300        236.67	    16.852
  10.320        274.17	    18.138
  10.340        382.50	    21.424
  10.360        616.67	    27.203
  10.380        698.33	    28.948
  10.400        499.17	    24.474
  10.420        286.67	    18.547
  10.440        175.83	    14.526
  10.460        136.67	    12.806
  10.480         92.50	    10.536
  10.500        125.00	    12.247
  10.520        130.00	    12.490
  10.540        105.00	    11.225
  10.560        122.50	    12.124
  10.580        126.67	    12.329
  10.600        114.17	    11.705
  10.620        113.33	    11.662
  10.640        118.33	    11.916
  10.660        109.17	    11.446
  10.680        101.67	    11.045
  10.700        114.17	    11.705
  10.720         96.67	    10.770
  10.740        106.67	    11.314
  10.760        129.17	    12.450
  10.780        118.33	    11.916
  10.800        121.67	    12.083
  10.820        109.17	    11.446
  10.840        113.33	    11.662
  10.860        135.00	    12.728
  10.880        106.67	    11.314
  10.900         90.83	    10.440
  10.920        111.67	    11.576
  10.940        102.50	    11.091
  10.960        101.67	    11.045
  10.980        105.00	    11.225
  11.000        123.33	    12.166
  11.020        115.00	    11.747
  11.040        116.67	    11.832
  11.060        103.33	    11.136
  11.080        123.33	    12.166
  11.100        132.50	    12.610
  11.120        129.17	    12.450
  11.140        114.17	    11.705
  11.160        131.67	    12.570
  11.180        122.50	    12.124
  11.200         93.33	    10.583
  11.220         95.00	    10.677
  11.240        103.33	    11.136
  11.260        110.00	    11.489
  11.280        110.00	    11.489
  11.300        107.50	    11.358
  11.320        119.17	    11.958
  11.340        113.33	    11.662
  11.360        110.00	    11.489
  11.380        111.67	    11.576
  11.400         91.67	    10.488
  11.420        101.67	    11.045
  11.440        102.50	    11.091
  11.460        105.00	    11.225
  11.480        114.17	    11.705
  11.500        125.83	    12.288
  11.520        138.33	    12.884
  11.540        117.50	    11.874
  11.560        116.67	    11.832
  11.580        121.67	    12.083
  11.600        117.50	    11.874
  11.620        115.83	    11.790
  11.640        128.33	    12.410
  11.660        134.17	    12.689
  11.680        112.50	    11.619
  11.700        115.00	    11.747
  11.720        130.00	    12.490
  11.740        138.33	    12.884
  11.760        127.50	    12.369
  11.780        135.83	    12.767
  11.800        155.00	    13.638
  11.820        165.83	    14.107
  11.840        161.67	    13.928
  11.860        176.67	    14.560
  11.880        235.00	    16.793
  11.900        266.67	    17.889
  11.920        321.67	    19.647
  11.940        392.50	    21.703
  11.960        615.83	    27.185
  11.980       1033.33	    35.214
  12.000       1406.67	    41.085
  12.020       1365.00	    40.472
  12.040       1036.67	    35.270
  12.060        649.17	    27.911
  12.080        416.67	    22.361
  12.100        394.17	    21.749
  12.120        460.83	    23.516
  12.140        558.33	    25.884
  12.160        686.67	    28.705
  12.180        706.67	    29.120
  12.200        647.50	    27.875
  12.220        496.67	    24.413
  12.240        437.50	    22.913
  12.260        443.33	    23.065
  12.280        545.00	    25.573
  12.300        624.17	    27.368
  12.320        620.00	    27.276
  12.340        526.67	    25.140
  12.360        343.33	    20.298
  12.380        227.50	    16.523
  12.400        146.67	    13.266
  12.420        132.50	    12.610
  12.440        115.00	    11.747
  12.460        126.67	    12.329
  12.480        143.33	    13.115
  12.500        120.83	    12.042
  12.520        121.67	    12.083
  12.540        104.17	    11.180
  12.560        108.33	    11.402
  12.580        112.50	    11.619
  12.600        118.33	    11.916
  12.620        130.00	    12.490
  12.640        101.67	    11.045
  12.660        111.67	    11.576
  12.680         92.50	    10.536
  12.700        109.17	    11.446
  12.720         90.83	    10.440
  12.740        103.33	    11.136
  12.760         90.83	    10.440
  12.780         96.67	    10.770
  12.800         99.17	    10.909
  12.820         88.33	    10.296
  12.840        103.33	    11.136
  12.860        115.00	    11.747
  12.880         84.17	    10.050
  12.900         98.33	    10.863
  12.920         89.17	    10.344
  12.940        100.00	    10.954
  12.960         98.33	    10.863
  12.980        105.00	    11.225
  13.000         91.67	    10.488
  13.020         85.00	    10.100
  13.040         95.00	    10.677
  13.060        106.67	    11.314
  13.080        105.00	    11.225
  13.100        105.00	    11.225
  13.120         88.33	    10.296
  13.140         81.67	     9.899
  13.160        110.83	    11.533
  13.180         95.83	    10.724
  13.200        100.00	    10.954
  13.220        100.00	    10.954
  13.240         90.83	    10.440
  13.260         85.00	    10.100
  13.280         96.67	    10.770
  13.300         93.33	    10.583
  13.320         85.00	    10.100
  13.340         99.17	    10.909
  13.360         94.17	    10.630
  13.380         85.00	    10.100
  13.400        104.17	    11.180
  13.420         82.50	     9.950
  13.440         91.67	    10.488
  13.460        107.50	    11.358
  13.480         92.50	    10.536
  13.500         73.33	     9.381
  13.520         78.33	     9.695
  13.540         84.17	    10.050
  13.560         76.67	     9.592
  13.580         97.50	    10.817
  13.600        109.17	    11.446
  13.620         93.33	    10.583
  13.640        126.67	    12.329
  13.660        130.00	    12.490
  13.680        133.33	    12.649
  13.700        108.33	    11.402
  13.720        101.67	    11.045
  13.740         83.33	    10.000
  13.760         78.33	     9.695
  13.780         79.17	     9.747
  13.800        106.67	    11.314
  13.820         59.17	     8.426
  13.840         90.00	    10.392
  13.860         80.00	     9.798
  13.880         86.67	    10.198
  13.900         86.67	    10.198
  13.920         71.67	     9.274
  13.940         80.00	     9.798
  13.960         72.50	     9.327
  13.980         79.17	     9.747
  14.000         80.83	     9.849
  14.020         95.83	    10.724
  14.040         84.17	    10.050
  14.060         67.50	     9.000
  14.080         80.83	     9.849
  14.100         80.83	     9.849
  14.120         82.50	     9.950
  14.140         85.00	    10.100
  14.160         67.50	     9.000
  14.180         80.83	     9.849
  14.200         76.67	     9.592
  14.220         82.50	     9.950
  14.240         63.33	     8.718
  14.260         58.33	     8.367
  14.280         79.17	     9.747
  14.300         69.17	     9.110
  14.320         78.33	     9.695
  14.340         80.00	     9.798
  14.360         85.83	    10.149
  14.380         73.33	     9.381
  14.400         77.50	     9.644
