
Filename:
	C:\Program Files\Thermo Electron\WinXRD\Datafiles\F_HERMAN\GEO\G71_RT.raw

File Created:
	February 21, 2020 - 08:37 PM

Specimen Id:
	G71_RT

Specimen Name:
	

Specimen Description:
	

Comment:
Scan Type: 2Theta Scan
Start Angle: 3 deg.
Stop Angle: 65 deg.
Num Points: 3101
Step Size: 0.02 deg.
Scan Rate: 1.000000
Scan Mode: Continuous
Wavelength: 1.540562
\Kalpha1: 1.540562	\Kalpha2: 1.544390	\Kbeta: 1.392218

Optics:
		Detector:
			 Type: Fixed Slits
		Tube: 
			 Type: Fixed Slits


Datas:
 Pos [deg]       Rate [CPS]      ESD [-]

Range 1 ---> Iteration 1
   3.000        394.17	    21.749
   3.020        455.00	    23.367
   3.040        440.00	    22.978
   3.060        417.50	    22.383
   3.080        419.17	    22.428
   3.100        398.33	    21.863
   3.120        445.83	    23.130
   3.140        428.33	    22.672
   3.160        442.50	    23.043
   3.180        449.17	    23.216
   3.200        404.17	    22.023
   3.220        409.17	    22.159
   3.240        430.83	    22.738
   3.260        417.50	    22.383
   3.280        392.50	    21.703
   3.300        402.50	    21.977
   3.320        385.83	    21.517
   3.340        425.83	    22.605
   3.360        393.33	    21.726
   3.380        416.67	    22.361
   3.400        388.33	    21.587
   3.420        431.67	    22.760
   3.440        395.00	    21.772
   3.460        388.33	    21.587
   3.480        390.83	    21.656
   3.500        350.83	    20.518
   3.520        385.83	    21.517
   3.540        330.83	    19.925
   3.560        356.67	    20.688
   3.580        342.50	    20.273
   3.600        353.33	    20.591
   3.620        350.83	    20.518
   3.640        339.17	    20.174
   3.660        363.33	    20.881
   3.680        345.00	    20.347
   3.700        334.17	    20.025
   3.720        339.17	    20.174
   3.740        357.50	    20.712
   3.760        338.33	    20.149
   3.780        347.50	    20.421
   3.800        339.17	    20.174
   3.820        345.83	    20.372
   3.840        339.17	    20.174
   3.860        316.67	    19.494
   3.880        355.83	    20.664
   3.900        334.17	    20.025
   3.920        317.50	    19.519
   3.940        335.00	    20.050
   3.960        320.00	    19.596
   3.980        294.17	    18.788
   4.000        321.67	    19.647
   4.020        319.17	    19.570
   4.040        300.00	    18.974
   4.060        320.00	    19.596
   4.080        307.50	    19.209
   4.100        295.83	    18.841
   4.120        289.17	    18.628
   4.140        323.33	    19.698
   4.160        306.67	    19.183
   4.180        330.83	    19.925
   4.200        306.67	    19.183
   4.220        316.67	    19.494
   4.240        305.83	    19.157
   4.260        325.00	    19.748
   4.280        287.50	    18.574
   4.300        292.50	    18.735
   4.320        281.67	    18.385
   4.340        300.00	    18.974
   4.360        260.00	    17.664
   4.380        306.67	    19.183
   4.400        280.83	    18.358
   4.420        270.83	    18.028
   4.440        280.00	    18.330
   4.460        271.67	    18.055
   4.480        299.17	    18.947
   4.500        248.33	    17.263
   4.520        271.67	    18.055
   4.540        270.00	    18.000
   4.560        252.50	    17.407
   4.580        267.50	    17.916
   4.600        267.50	    17.916
   4.620        265.00	    17.833
   4.640        247.50	    17.234
   4.660        264.17	    17.804
   4.680        250.00	    17.321
   4.700        222.50	    16.340
   4.720        276.67	    18.221
   4.740        234.17	    16.763
   4.760        243.33	    17.088
   4.780        259.17	    17.635
   4.800        220.00	    16.248
   4.820        255.83	    17.521
   4.840        277.50	    18.248
   4.860        271.67	    18.055
   4.880        235.83	    16.823
   4.900        235.00	    16.793
   4.920        246.67	    17.205
   4.940        250.83	    17.349
   4.960        246.67	    17.205
   4.980        233.33	    16.733
   5.000        280.00	    18.330
   5.020        241.67	    17.029
   5.040        242.50	    17.059
   5.060        229.17	    16.583
   5.080        250.83	    17.349
   5.100        227.50	    16.523
   5.120        246.67	    17.205
   5.140        262.50	    17.748
   5.160        228.33	    16.553
   5.180        236.67	    16.852
   5.200        231.67	    16.673
   5.220        223.33	    16.371
   5.240        215.83	    16.093
   5.260        227.50	    16.523
   5.280        223.33	    16.371
   5.300        215.83	    16.093
   5.320        211.67	    15.937
   5.340        226.67	    16.492
   5.360        218.33	    16.186
   5.380        213.33	    16.000
   5.400        225.83	    16.462
   5.420        214.17	    16.031
   5.440        223.33	    16.371
   5.460        226.67	    16.492
   5.480        216.67	    16.125
   5.500        228.33	    16.553
   5.520        230.83	    16.643
   5.540        216.67	    16.125
   5.560        217.50	    16.155
   5.580        233.33	    16.733
   5.600        214.17	    16.031
   5.620        193.33	    15.232
   5.640        218.33	    16.186
   5.660        215.83	    16.093
   5.680        247.50	    17.234
   5.700        221.67	    16.310
   5.720        215.83	    16.093
   5.740        213.33	    16.000
   5.760        215.83	    16.093
   5.780        243.33	    17.088
   5.800        209.17	    15.843
   5.820        214.17	    16.031
   5.840        190.00	    15.100
   5.860        212.50	    15.969
   5.880        210.83	    15.906
   5.900        223.33	    16.371
   5.920        208.33	    15.811
   5.940        223.33	    16.371
   5.960        224.17	    16.401
   5.980        246.67	    17.205
   6.000        232.50	    16.703
   6.020        213.33	    16.000
   6.040        253.33	    17.436
   6.060        235.83	    16.823
   6.080        268.33	    17.944
   6.100        281.67	    18.385
   6.120        240.83	    17.000
   6.140        315.00	    19.442
   6.160        289.17	    18.628
   6.180        265.83	    17.861
   6.200        225.00	    16.432
   6.220        194.17	    15.264
   6.240        215.83	    16.093
   6.260        201.67	    15.556
   6.280        198.33	    15.427
   6.300        188.33	    15.033
   6.320        195.00	    15.297
   6.340        160.00	    13.856
   6.360        198.33	    15.427
   6.380        200.00	    15.492
   6.400        190.00	    15.100
   6.420        172.50	    14.387
   6.440        182.50	    14.799
   6.460        167.50	    14.177
   6.480        162.50	    13.964
   6.500        203.33	    15.620
   6.520        192.50	    15.199
   6.540        173.33	    14.422
   6.560        188.33	    15.033
   6.580        199.17	    15.460
   6.600        198.33	    15.427
   6.620        166.67	    14.142
   6.640        184.17	    14.866
   6.660        175.00	    14.491
   6.680        170.00	    14.283
   6.700        189.17	    15.067
   6.720        181.67	    14.765
   6.740        180.83	    14.731
   6.760        160.00	    13.856
   6.780        165.00	    14.071
   6.800        189.17	    15.067
   6.820        180.83	    14.731
   6.840        172.50	    14.387
   6.860        171.67	    14.353
   6.880        156.67	    13.711
   6.900        160.83	    13.892
   6.920        167.50	    14.177
   6.940        165.00	    14.071
   6.960        175.83	    14.526
   6.980        160.83	    13.892
   7.000        202.50	    15.588
   7.020        177.50	    14.595
   7.040        171.67	    14.353
   7.060        142.50	    13.077
   7.080        171.67	    14.353
   7.100        147.50	    13.304
   7.120        168.33	    14.213
   7.140        156.67	    13.711
   7.160        172.50	    14.387
   7.180        164.17	    14.036
   7.200        185.00	    14.900
   7.220        160.83	    13.892
   7.240        159.17	    13.820
   7.260        148.33	    13.342
   7.280        165.83	    14.107
   7.300        160.83	    13.892
   7.320        166.67	    14.142
   7.340        163.33	    14.000
   7.360        170.00	    14.283
   7.380        153.33	    13.565
   7.400        155.00	    13.638
   7.420        155.83	    13.675
   7.440        161.67	    13.928
   7.460        155.83	    13.675
   7.480        147.50	    13.304
   7.500        175.00	    14.491
   7.520        155.83	    13.675
   7.540        150.00	    13.416
   7.560        140.00	    12.961
   7.580        156.67	    13.711
   7.600        144.17	    13.153
   7.620        174.17	    14.457
   7.640        150.83	    13.454
   7.660        150.83	    13.454
   7.680        165.83	    14.107
   7.700        159.17	    13.820
   7.720        139.17	    12.923
   7.740        170.83	    14.318
   7.760        153.33	    13.565
   7.780        136.67	    12.806
   7.800        146.67	    13.266
   7.820        156.67	    13.711
   7.840        151.67	    13.491
   7.860        152.50	    13.528
   7.880        154.17	    13.601
   7.900        141.67	    13.038
   7.920        130.00	    12.490
   7.940        146.67	    13.266
   7.960        149.17	    13.379
   7.980        148.33	    13.342
   8.000        133.33	    12.649
   8.020        139.17	    12.923
   8.040        145.83	    13.229
   8.060        155.00	    13.638
   8.080        149.17	    13.379
   8.100        138.33	    12.884
   8.120        151.67	    13.491
   8.140        147.50	    13.304
   8.160        143.33	    13.115
   8.180        139.17	    12.923
   8.200        132.50	    12.610
   8.220        150.00	    13.416
   8.240        147.50	    13.304
   8.260        155.83	    13.675
   8.280        138.33	    12.884
   8.300        116.67	    11.832
   8.320        155.83	    13.675
   8.340        150.00	    13.416
   8.360        159.17	    13.820
   8.380        165.83	    14.107
   8.400        152.50	    13.528
   8.420        165.00	    14.071
   8.440        162.50	    13.964
   8.460        155.83	    13.675
   8.480        172.50	    14.387
   8.500        175.83	    14.526
   8.520        187.50	    15.000
   8.540        190.00	    15.100
   8.560        210.83	    15.906
   8.580        220.00	    16.248
   8.600        205.83	    15.716
   8.620        262.50	    17.748
   8.640        224.17	    16.401
   8.660        270.00	    18.000
   8.680        276.67	    18.221
   8.700        300.83	    19.000
   8.720        352.50	    20.567
   8.740        424.17	    22.561
   8.760        563.33	    26.000
   8.780        671.67	    28.390
   8.800        721.67	    29.428
   8.820        580.83	    26.401
   8.840        442.50	    23.043
   8.860        253.33	    17.436
   8.880        202.50	    15.588
   8.900        160.00	    13.856
   8.920        159.17	    13.820
   8.940        129.17	    12.450
   8.960        135.83	    12.767
   8.980        131.67	    12.570
   9.000        170.00	    14.283
   9.020        132.50	    12.610
   9.040        156.67	    13.711
   9.060        140.83	    13.000
   9.080        156.67	    13.711
   9.100        161.67	    13.928
   9.120        166.67	    14.142
   9.140        152.50	    13.528
   9.160        134.17	    12.689
   9.180        124.17	    12.207
   9.200        146.67	    13.266
   9.220        125.00	    12.247
   9.240        115.83	    11.790
   9.260        136.67	    12.806
   9.280        145.83	    13.229
   9.300        168.33	    14.213
   9.320        147.50	    13.304
   9.340        140.83	    13.000
   9.360        146.67	    13.266
   9.380        142.50	    13.077
   9.400        141.67	    13.038
   9.420        136.67	    12.806
   9.440        134.17	    12.689
   9.460        123.33	    12.166
   9.480        121.67	    12.083
   9.500        128.33	    12.410
   9.520        114.17	    11.705
   9.540        124.17	    12.207
   9.560        134.17	    12.689
   9.580        113.33	    11.662
   9.600        105.00	    11.225
   9.620        124.17	    12.207
   9.640        105.83	    11.269
   9.660         99.17	    10.909
   9.680        120.83	    12.042
   9.700        117.50	    11.874
   9.720        138.33	    12.884
   9.740        118.33	    11.916
   9.760        110.00	    11.489
   9.780        103.33	    11.136
   9.800        118.33	    11.916
   9.820        115.00	    11.747
   9.840        106.67	    11.314
   9.860        117.50	    11.874
   9.880        100.83	    11.000
   9.900        110.83	    11.533
   9.920         91.67	    10.488
   9.940        100.83	    11.000
   9.960        113.33	    11.662
   9.980        104.17	    11.180
  10.000        106.67	    11.314
  10.020         99.17	    10.909
  10.040        102.50	    11.091
  10.060        105.00	    11.225
  10.080         95.00	    10.677
  10.100        105.00	    11.225
  10.120        109.17	    11.446
  10.140        114.17	    11.705
  10.160        112.50	    11.619
  10.180        118.33	    11.916
  10.200        109.17	    11.446
  10.220         88.33	    10.296
  10.240        115.83	    11.790
  10.260        115.83	    11.790
  10.280         97.50	    10.817
  10.300        112.50	    11.619
  10.320        124.17	    12.207
  10.340        122.50	    12.124
  10.360        137.50	    12.845
  10.380        151.67	    13.491
  10.400        190.83	    15.133
  10.420        192.50	    15.199
  10.440        197.50	    15.395
  10.460        156.67	    13.711
  10.480        127.50	    12.369
  10.500         93.33	    10.583
  10.520         99.17	    10.909
  10.540        116.67	    11.832
  10.560        103.33	    11.136
  10.580        110.83	    11.533
  10.600        111.67	    11.576
  10.620         95.00	    10.677
  10.640        100.83	    11.000
  10.660        104.17	    11.180
  10.680         97.50	    10.817
  10.700        103.33	    11.136
  10.720         99.17	    10.909
  10.740        100.00	    10.954
  10.760         93.33	    10.583
  10.780         92.50	    10.536
  10.800         96.67	    10.770
  10.820        100.83	    11.000
  10.840         93.33	    10.583
  10.860         97.50	    10.817
  10.880        105.00	    11.225
  10.900        110.00	    11.489
  10.920        103.33	    11.136
  10.940        103.33	    11.136
  10.960        102.50	    11.091
  10.980        100.00	    10.954
  11.000         95.00	    10.677
  11.020         91.67	    10.488
  11.040         98.33	    10.863
  11.060         99.17	    10.909
  11.080         94.17	    10.630
  11.100         92.50	    10.536
  11.120         95.83	    10.724
  11.140         65.00	     8.832
  11.160        101.67	    11.045
  11.180         88.33	    10.296
  11.200         91.67	    10.488
  11.220         99.17	    10.909
  11.240        104.17	    11.180
  11.260         86.67	    10.198
  11.280        104.17	    11.180
  11.300         93.33	    10.583
  11.320         87.50	    10.247
  11.340         86.67	    10.198
  11.360         80.83	     9.849
  11.380         98.33	    10.863
  11.400         91.67	    10.488
  11.420         77.50	     9.644
  11.440         94.17	    10.630
  11.460         87.50	    10.247
  11.480        103.33	    11.136
  11.500         89.17	    10.344
  11.520         91.67	    10.488
  11.540         98.33	    10.863
  11.560         91.67	    10.488
  11.580         87.50	    10.247
  11.600         93.33	    10.583
  11.620         95.00	    10.677
  11.640        102.50	    11.091
  11.660         92.50	    10.536
  11.680         86.67	    10.198
  11.700         99.17	    10.909
  11.720         85.00	    10.100
  11.740        110.00	    11.489
  11.760         85.83	    10.149
  11.780         92.50	    10.536
  11.800         96.67	    10.770
  11.820         79.17	     9.747
  11.840         97.50	    10.817
  11.860        101.67	    11.045
  11.880         91.67	    10.488
  11.900        103.33	    11.136
  11.920         91.67	    10.488
  11.940         82.50	     9.950
  11.960         96.67	    10.770
  11.980        120.00	    12.000
  12.000        120.83	    12.042
  12.020        138.33	    12.884
  12.040        180.00	    14.697
  12.060        210.83	    15.906
  12.080        265.00	    17.833
  12.100        333.33	    20.000
  12.120        342.50	    20.273
  12.140        275.83	    18.193
  12.160        228.33	    16.553
  12.180        144.17	    13.153
  12.200        163.33	    14.000
  12.220        160.00	    13.856
  12.240        191.67	    15.166
  12.260        223.33	    16.371
  12.280        207.50	    15.780
  12.300        202.50	    15.588
  12.320        192.50	    15.199
  12.340        180.83	    14.731
  12.360        240.83	    17.000
  12.380        267.50	    17.916
  12.400        339.17	    20.174
  12.420        409.17	    22.159
  12.440        330.00	    19.900
  12.460        246.67	    17.205
  12.480        167.50	    14.177
  12.500        147.50	    13.304
  12.520        118.33	    11.916
  12.540        114.17	    11.705
  12.560        106.67	    11.314
  12.580        106.67	    11.314
  12.600         93.33	    10.583
  12.620        101.67	    11.045
  12.640         73.33	     9.381
  12.660         87.50	    10.247
  12.680         94.17	    10.630
  12.700         87.50	    10.247
  12.720         97.50	    10.817
  12.740         93.33	    10.583
  12.760         88.33	    10.296
  12.780         98.33	    10.863
  12.800         74.17	     9.434
  12.820         80.83	     9.849
  12.840         76.67	     9.592
  12.860         90.83	    10.440
  12.880         77.50	     9.644
  12.900         88.33	    10.296
  12.920         79.17	     9.747
  12.940         66.67	     8.944
  12.960         85.00	    10.100
  12.980         90.00	    10.392
  13.000         80.00	     9.798
  13.020         69.17	     9.110
  13.040         70.83	     9.220
  13.060         70.00	     9.165
  13.080         82.50	     9.950
  13.100         90.83	    10.440
  13.120         75.00	     9.487
  13.140         81.67	     9.899
  13.160         90.83	    10.440
  13.180         66.67	     8.944
  13.200         92.50	    10.536
  13.220         76.67	     9.592
  13.240         80.00	     9.798
  13.260         70.83	     9.220
  13.280         75.83	     9.539
  13.300         75.00	     9.487
  13.320         75.00	     9.487
  13.340         80.00	     9.798
  13.360         80.83	     9.849
  13.380         70.00	     9.165
  13.400         62.50	     8.660
  13.420         71.67	     9.274
  13.440         78.33	     9.695
  13.460         66.67	     8.944
  13.480         68.33	     9.055
  13.500         89.17	    10.344
  13.520         76.67	     9.592
  13.540         77.50	     9.644
  13.560         86.67	    10.198
  13.580         72.50	     9.327
  13.600         93.33	    10.583
  13.620         80.83	     9.849
  13.640         83.33	    10.000
  13.660         65.83	     8.888
  13.680         75.00	     9.487
  13.700         74.17	     9.434
  13.720         98.33	    10.863
  13.740         98.33	    10.863
  13.760        120.83	    12.042
  13.780        110.83	    11.533
  13.800         99.17	    10.909
  13.820         89.17	    10.344
  13.840         78.33	     9.695
  13.860         80.83	     9.849
  13.880        103.33	    11.136
  13.900         85.83	    10.149
  13.920         75.83	     9.539
  13.940         85.00	    10.100
  13.960         76.67	     9.592
  13.980         71.67	     9.274
  14.000         85.83	    10.149
  14.020         75.00	     9.487
  14.040         69.17	     9.110
  14.060         75.00	     9.487
  14.080         75.00	     9.487
  14.100         72.50	     9.327
  14.120         70.83	     9.220
  14.140         81.67	     9.899
  14.160         65.83	     8.888
  14.180         60.00	     8.485
  14.200         67.50	     9.000
  14.220         60.00	     8.485
  14.240         73.33	     9.381
  14.260         76.67	     9.592
  14.280         58.33	     8.367
  14.300         64.17	     8.775
  14.320         76.67	     9.592
  14.340         65.83	     8.888
  14.360         75.83	     9.539
  14.380         69.17	     9.110
  14.400         68.33	     9.055
