
Filename:
	C:\Program Files\Thermo Electron\WinXRD\Datafiles\F_HERMAN\GEO\G72_RT.raw

File Created:
	February 21, 2020 - 09:39 PM

Specimen Id:
	G72_RT

Specimen Name:
	

Specimen Description:
	

Comment:
Scan Type: 2Theta Scan
Start Angle: 3 deg.
Stop Angle: 65 deg.
Num Points: 3101
Step Size: 0.02 deg.
Scan Rate: 1.000000
Scan Mode: Continuous
Wavelength: 1.540562
\Kalpha1: 1.540562	\Kalpha2: 1.544390	\Kbeta: 1.392218

Optics:
		Detector:
			 Type: Fixed Slits
		Tube: 
			 Type: Fixed Slits


Datas:
 Pos [deg]       Rate [CPS]      ESD [-]

Range 1 ---> Iteration 1
   3.000        431.67	    22.760
   3.020        459.17	    23.473
   3.040        444.17	    23.087
   3.060        460.00	    23.495
   3.080        430.00	    22.716
   3.100        397.50	    21.840
   3.120        416.67	    22.361
   3.140        400.83	    21.932
   3.160        430.00	    22.716
   3.180        444.17	    23.087
   3.200        373.33	    21.166
   3.220        376.67	    21.260
   3.240        419.17	    22.428
   3.260        415.83	    22.338
   3.280        398.33	    21.863
   3.300        375.83	    21.237
   3.320        383.33	    21.448
   3.340        362.50	    20.857
   3.360        364.17	    20.905
   3.380        361.67	    20.833
   3.400        332.50	    19.975
   3.420        355.00	    20.640
   3.440        393.33	    21.726
   3.460        382.50	    21.424
   3.480        380.83	    21.378
   3.500        325.00	    19.748
   3.520        363.33	    20.881
   3.540        345.83	    20.372
   3.560        375.83	    21.237
   3.580        348.33	    20.445
   3.600        324.17	    19.723
   3.620        348.33	    20.445
   3.640        375.00	    21.213
   3.660        363.33	    20.881
   3.680        334.17	    20.025
   3.700        304.17	    19.105
   3.720        351.67	    20.543
   3.740        316.67	    19.494
   3.760        311.67	    19.339
   3.780        300.00	    18.974
   3.800        322.50	    19.672
   3.820        320.83	    19.621
   3.840        325.83	    19.774
   3.860        279.17	    18.303
   3.880        317.50	    19.519
   3.900        297.50	    18.894
   3.920        330.00	    19.900
   3.940        305.00	    19.131
   3.960        324.17	    19.723
   3.980        290.00	    18.655
   4.000        317.50	    19.519
   4.020        305.83	    19.157
   4.040        301.67	    19.026
   4.060        296.67	    18.868
   4.080        309.17	    19.261
   4.100        276.67	    18.221
   4.120        318.33	    19.545
   4.140        335.00	    20.050
   4.160        285.00	    18.493
   4.180        270.83	    18.028
   4.200        276.67	    18.221
   4.220        277.50	    18.248
   4.240        287.50	    18.574
   4.260        290.00	    18.655
   4.280        275.00	    18.166
   4.300        271.67	    18.055
   4.320        269.17	    17.972
   4.340        282.50	    18.412
   4.360        260.00	    17.664
   4.380        270.83	    18.028
   4.400        271.67	    18.055
   4.420        278.33	    18.276
   4.440        281.67	    18.385
   4.460        268.33	    17.944
   4.480        310.83	    19.313
   4.500        247.50	    17.234
   4.520        257.50	    17.578
   4.540        269.17	    17.972
   4.560        253.33	    17.436
   4.580        272.50	    18.083
   4.600        296.67	    18.868
   4.620        265.00	    17.833
   4.640        293.33	    18.762
   4.660        270.00	    18.000
   4.680        242.50	    17.059
   4.700        233.33	    16.733
   4.720        267.50	    17.916
   4.740        268.33	    17.944
   4.760        263.33	    17.776
   4.780        255.83	    17.521
   4.800        233.33	    16.733
   4.820        265.00	    17.833
   4.840        251.67	    17.378
   4.860        296.67	    18.868
   4.880        241.67	    17.029
   4.900        264.17	    17.804
   4.920        245.00	    17.146
   4.940        262.50	    17.748
   4.960        238.33	    16.912
   4.980        236.67	    16.852
   5.000        243.33	    17.088
   5.020        242.50	    17.059
   5.040        247.50	    17.234
   5.060        241.67	    17.029
   5.080        246.67	    17.205
   5.100        229.17	    16.583
   5.120        246.67	    17.205
   5.140        235.83	    16.823
   5.160        235.83	    16.823
   5.180        240.00	    16.971
   5.200        245.83	    17.176
   5.220        242.50	    17.059
   5.240        247.50	    17.234
   5.260        233.33	    16.733
   5.280        239.17	    16.941
   5.300        255.00	    17.493
   5.320        238.33	    16.912
   5.340        220.83	    16.279
   5.360        235.83	    16.823
   5.380        242.50	    17.059
   5.400        227.50	    16.523
   5.420        240.83	    17.000
   5.440        230.00	    16.613
   5.460        205.83	    15.716
   5.480        251.67	    17.378
   5.500        240.00	    16.971
   5.520        237.50	    16.882
   5.540        222.50	    16.340
   5.560        211.67	    15.937
   5.580        218.33	    16.186
   5.600        208.33	    15.811
   5.620        221.67	    16.310
   5.640        205.00	    15.684
   5.660        202.50	    15.588
   5.680        210.00	    15.875
   5.700        211.67	    15.937
   5.720        214.17	    16.031
   5.740        213.33	    16.000
   5.760        220.00	    16.248
   5.780        223.33	    16.371
   5.800        235.83	    16.823
   5.820        215.00	    16.062
   5.840        220.00	    16.248
   5.860        197.50	    15.395
   5.880        247.50	    17.234
   5.900        202.50	    15.588
   5.920        215.83	    16.093
   5.940        237.50	    16.882
   5.960        225.83	    16.462
   5.980        214.17	    16.031
   6.000        214.17	    16.031
   6.020        209.17	    15.843
   6.040        241.67	    17.029
   6.060        280.83	    18.358
   6.080        276.67	    18.221
   6.100        297.50	    18.894
   6.120        289.17	    18.628
   6.140        238.33	    16.912
   6.160        248.33	    17.263
   6.180        220.00	    16.248
   6.200        202.50	    15.588
   6.220        219.17	    16.217
   6.240        185.00	    14.900
   6.260        185.00	    14.900
   6.280        205.83	    15.716
   6.300        204.17	    15.652
   6.320        195.00	    15.297
   6.340        210.00	    15.875
   6.360        222.50	    16.340
   6.380        193.33	    15.232
   6.400        205.00	    15.684
   6.420        177.50	    14.595
   6.440        199.17	    15.460
   6.460        205.00	    15.684
   6.480        185.83	    14.933
   6.500        180.00	    14.697
   6.520        177.50	    14.595
   6.540        205.00	    15.684
   6.560        210.83	    15.906
   6.580        196.67	    15.362
   6.600        189.17	    15.067
   6.620        205.83	    15.716
   6.640        192.50	    15.199
   6.660        179.17	    14.663
   6.680        200.83	    15.524
   6.700        171.67	    14.353
   6.720        209.17	    15.843
   6.740        194.17	    15.264
   6.760        179.17	    14.663
   6.780        205.83	    15.716
   6.800        204.17	    15.652
   6.820        197.50	    15.395
   6.840        176.67	    14.560
   6.860        163.33	    14.000
   6.880        189.17	    15.067
   6.900        185.83	    14.933
   6.920        178.33	    14.629
   6.940        173.33	    14.422
   6.960        180.83	    14.731
   6.980        170.83	    14.318
   7.000        177.50	    14.595
   7.020        168.33	    14.213
   7.040        196.67	    15.362
   7.060        178.33	    14.629
   7.080        178.33	    14.629
   7.100        176.67	    14.560
   7.120        200.83	    15.524
   7.140        174.17	    14.457
   7.160        145.83	    13.229
   7.180        166.67	    14.142
   7.200        158.33	    13.784
   7.220        151.67	    13.491
   7.240        155.00	    13.638
   7.260        164.17	    14.036
   7.280        176.67	    14.560
   7.300        166.67	    14.142
   7.320        182.50	    14.799
   7.340        185.00	    14.900
   7.360        165.00	    14.071
   7.380        172.50	    14.387
   7.400        172.50	    14.387
   7.420        163.33	    14.000
   7.440        165.83	    14.107
   7.460        165.83	    14.107
   7.480        156.67	    13.711
   7.500        149.17	    13.379
   7.520        172.50	    14.387
   7.540        160.83	    13.892
   7.560        165.00	    14.071
   7.580        164.17	    14.036
   7.600        162.50	    13.964
   7.620        154.17	    13.601
   7.640        160.00	    13.856
   7.660        150.00	    13.416
   7.680        148.33	    13.342
   7.700        179.17	    14.663
   7.720        151.67	    13.491
   7.740        170.83	    14.318
   7.760        150.83	    13.454
   7.780        164.17	    14.036
   7.800        164.17	    14.036
   7.820        160.00	    13.856
   7.840        129.17	    12.450
   7.860        165.83	    14.107
   7.880        131.67	    12.570
   7.900        159.17	    13.820
   7.920        167.50	    14.177
   7.940        158.33	    13.784
   7.960        149.17	    13.379
   7.980        144.17	    13.153
   8.000        147.50	    13.304
   8.020        162.50	    13.964
   8.040        127.50	    12.369
   8.060        148.33	    13.342
   8.080        151.67	    13.491
   8.100        154.17	    13.601
   8.120        179.17	    14.663
   8.140        130.00	    12.490
   8.160        150.83	    13.454
   8.180        155.83	    13.675
   8.200        174.17	    14.457
   8.220        142.50	    13.077
   8.240        145.83	    13.229
   8.260        154.17	    13.601
   8.280        158.33	    13.784
   8.300        148.33	    13.342
   8.320        165.83	    14.107
   8.340        138.33	    12.884
   8.360        141.67	    13.038
   8.380        189.17	    15.067
   8.400        164.17	    14.036
   8.420        193.33	    15.232
   8.440        150.83	    13.454
   8.460        187.50	    15.000
   8.480        158.33	    13.784
   8.500        182.50	    14.799
   8.520        175.00	    14.491
   8.540        162.50	    13.964
   8.560        199.17	    15.460
   8.580        190.83	    15.133
   8.600        212.50	    15.969
   8.620        225.83	    16.462
   8.640        249.17	    17.292
   8.660        285.00	    18.493
   8.680        287.50	    18.574
   8.700        329.17	    19.875
   8.720        326.67	    19.799
   8.740        400.83	    21.932
   8.760        509.17	    24.718
   8.780        638.33	    27.677
   8.800        661.67	    28.178
   8.820        437.50	    22.913
   8.840        285.00	    18.493
   8.860        200.83	    15.524
   8.880        155.00	    13.638
   8.900        175.83	    14.526
   8.920        148.33	    13.342
   8.940        140.83	    13.000
   8.960        149.17	    13.379
   8.980        147.50	    13.304
   9.000        142.50	    13.077
   9.020        150.83	    13.454
   9.040        152.50	    13.528
   9.060        132.50	    12.610
   9.080        155.83	    13.675
   9.100        155.00	    13.638
   9.120        140.00	    12.961
   9.140        149.17	    13.379
   9.160        152.50	    13.528
   9.180        110.00	    11.489
   9.200        135.83	    12.767
   9.220        130.00	    12.490
   9.240        130.00	    12.490
   9.260        145.83	    13.229
   9.280        133.33	    12.649
   9.300        132.50	    12.610
   9.320        136.67	    12.806
   9.340        141.67	    13.038
   9.360        158.33	    13.784
   9.380        154.17	    13.601
   9.400        126.67	    12.329
   9.420        140.00	    12.961
   9.440        131.67	    12.570
   9.460        124.17	    12.207
   9.480        116.67	    11.832
   9.500        122.50	    12.124
   9.520        122.50	    12.124
   9.540        126.67	    12.329
   9.560        114.17	    11.705
   9.580        145.83	    13.229
   9.600        100.00	    10.954
   9.620        105.83	    11.269
   9.640        119.17	    11.958
   9.660        120.00	    12.000
   9.680        127.50	    12.369
   9.700        118.33	    11.916
   9.720        124.17	    12.207
   9.740         99.17	    10.909
   9.760        130.83	    12.530
   9.780        118.33	    11.916
   9.800        115.83	    11.790
   9.820        119.17	    11.958
   9.840        115.00	    11.747
   9.860        119.17	    11.958
   9.880        122.50	    12.124
   9.900        119.17	    11.958
   9.920        100.83	    11.000
   9.940        108.33	    11.402
   9.960        120.00	    12.000
   9.980        115.83	    11.790
  10.000        117.50	    11.874
  10.020        126.67	    12.329
  10.040        115.00	    11.747
  10.060        129.17	    12.450
  10.080         99.17	    10.909
  10.100        109.17	    11.446
  10.120        110.83	    11.533
  10.140        124.17	    12.207
  10.160        102.50	    11.091
  10.180        103.33	    11.136
  10.200        103.33	    11.136
  10.220        123.33	    12.166
  10.240        122.50	    12.124
  10.260        126.67	    12.329
  10.280        114.17	    11.705
  10.300        109.17	    11.446
  10.320        127.50	    12.369
  10.340        129.17	    12.450
  10.360        131.67	    12.570
  10.380        138.33	    12.884
  10.400        120.00	    12.000
  10.420        142.50	    13.077
  10.440        130.83	    12.530
  10.460        121.67	    12.083
  10.480        117.50	    11.874
  10.500        107.50	    11.358
  10.520        107.50	    11.358
  10.540        100.83	    11.000
  10.560        111.67	    11.576
  10.580        116.67	    11.832
  10.600        105.00	    11.225
  10.620         99.17	    10.909
  10.640         96.67	    10.770
  10.660         95.83	    10.724
  10.680        100.83	    11.000
  10.700         98.33	    10.863
  10.720         95.83	    10.724
  10.740        105.00	    11.225
  10.760        101.67	    11.045
  10.780        118.33	    11.916
  10.800        105.00	    11.225
  10.820        106.67	    11.314
  10.840        125.83	    12.288
  10.860        101.67	    11.045
  10.880        103.33	    11.136
  10.900         95.83	    10.724
  10.920        125.00	    12.247
  10.940         85.83	    10.149
  10.960        101.67	    11.045
  10.980        111.67	    11.576
  11.000        100.00	    10.954
  11.020         88.33	    10.296
  11.040        103.33	    11.136
  11.060         97.50	    10.817
  11.080         96.67	    10.770
  11.100        101.67	    11.045
  11.120        112.50	    11.619
  11.140        101.67	    11.045
  11.160         84.17	    10.050
  11.180        108.33	    11.402
  11.200         87.50	    10.247
  11.220        109.17	    11.446
  11.240         95.00	    10.677
  11.260         99.17	    10.909
  11.280        115.00	    11.747
  11.300         89.17	    10.344
  11.320        107.50	    11.358
  11.340         95.83	    10.724
  11.360         90.00	    10.392
  11.380        101.67	    11.045
  11.400         77.50	     9.644
  11.420         94.17	    10.630
  11.440         97.50	    10.817
  11.460        100.83	    11.000
  11.480        115.00	    11.747
  11.500        115.83	    11.790
  11.520        111.67	    11.576
  11.540         94.17	    10.630
  11.560         96.67	    10.770
  11.580         90.83	    10.440
  11.600        100.00	    10.954
  11.620        117.50	    11.874
  11.640        104.17	    11.180
  11.660         85.83	    10.149
  11.680         97.50	    10.817
  11.700        102.50	    11.091
  11.720        115.83	    11.790
  11.740         90.83	    10.440
  11.760         86.67	    10.198
  11.780         96.67	    10.770
  11.800        107.50	    11.358
  11.820        105.00	    11.225
  11.840        105.00	    11.225
  11.860        106.67	    11.314
  11.880        121.67	    12.083
  11.900        128.33	    12.410
  11.920        107.50	    11.358
  11.940        115.83	    11.790
  11.960         99.17	    10.909
  11.980        130.83	    12.530
  12.000        168.33	    14.213
  12.020        174.17	    14.457
  12.040        208.33	    15.811
  12.060        270.83	    18.028
  12.080        357.50	    20.712
  12.100        420.00	    22.450
  12.120        327.50	    19.824
  12.140        241.67	    17.029
  12.160        206.67	    15.748
  12.180        163.33	    14.000
  12.200        164.17	    14.036
  12.220        173.33	    14.422
  12.240        223.33	    16.371
  12.260        217.50	    16.155
  12.280        187.50	    15.000
  12.300        203.33	    15.620
  12.320        178.33	    14.629
  12.340        233.33	    16.733
  12.360        261.67	    17.720
  12.380        325.83	    19.774
  12.400        340.00	    20.199
  12.420        335.00	    20.050
  12.440        254.17	    17.464
  12.460        175.83	    14.526
  12.480        149.17	    13.379
  12.500        119.17	    11.958
  12.520        107.50	    11.358
  12.540         97.50	    10.817
  12.560         78.33	     9.695
  12.580         92.50	    10.536
  12.600        104.17	    11.180
  12.620         89.17	    10.344
  12.640         97.50	    10.817
  12.660         85.00	    10.100
  12.680         92.50	    10.536
  12.700         90.00	    10.392
  12.720         78.33	     9.695
  12.740        109.17	    11.446
  12.760         86.67	    10.198
  12.780         80.00	     9.798
  12.800         77.50	     9.644
  12.820         94.17	    10.630
  12.840        104.17	    11.180
  12.860        110.00	    11.489
  12.880         88.33	    10.296
  12.900         97.50	    10.817
  12.920         92.50	    10.536
  12.940         88.33	    10.296
  12.960        105.83	    11.269
  12.980         82.50	     9.950
  13.000         80.00	     9.798
  13.020         79.17	     9.747
  13.040         95.00	    10.677
  13.060         72.50	     9.327
  13.080        101.67	    11.045
  13.100         86.67	    10.198
  13.120         86.67	    10.198
  13.140         79.17	     9.747
  13.160         82.50	     9.950
  13.180         80.83	     9.849
  13.200        109.17	    11.446
  13.220         81.67	     9.899
  13.240         91.67	    10.488
  13.260         84.17	    10.050
  13.280         92.50	    10.536
  13.300         80.83	     9.849
  13.320         85.00	    10.100
  13.340         70.00	     9.165
  13.360        100.00	    10.954
  13.380         81.67	     9.899
  13.400         81.67	     9.899
  13.420         84.17	    10.050
  13.440         67.50	     9.000
  13.460         88.33	    10.296
  13.480         98.33	    10.863
  13.500         80.83	     9.849
  13.520         78.33	     9.695
  13.540         84.17	    10.050
  13.560         99.17	    10.909
  13.580         84.17	    10.050
  13.600         94.17	    10.630
  13.620         75.00	     9.487
  13.640         86.67	    10.198
  13.660         79.17	     9.747
  13.680         97.50	    10.817
  13.700         86.67	    10.198
  13.720         86.67	    10.198
  13.740         90.00	    10.392
  13.760        110.00	    11.489
  13.780         79.17	     9.747
  13.800         80.83	     9.849
  13.820         84.17	    10.050
  13.840         81.67	     9.899
  13.860         83.33	    10.000
  13.880         83.33	    10.000
  13.900         71.67	     9.274
  13.920         98.33	    10.863
  13.940         93.33	    10.583
  13.960         91.67	    10.488
  13.980         85.83	    10.149
  14.000         60.83	     8.544
  14.020         68.33	     9.055
  14.040         81.67	     9.899
  14.060         70.00	     9.165
  14.080         72.50	     9.327
  14.100         67.50	     9.000
  14.120         81.67	     9.899
  14.140         75.00	     9.487
  14.160         83.33	    10.000
  14.180         73.33	     9.381
  14.200         70.83	     9.220
  14.220         75.83	     9.539
  14.240         80.83	     9.849
  14.260         69.17	     9.110
  14.280         70.83	     9.220
  14.300         70.00	     9.165
  14.320         69.17	     9.110
  14.340         63.33	     8.718
  14.360         74.17	     9.434
  14.380         75.00	     9.487
  14.400         72.50	     9.327
