
Filename:
	C:\Program Files\Thermo Electron\WinXRD\Datafiles\F_HERMAN\GEO\G74_RT.raw

File Created:
	February 19, 2020 - 03:33 AM

Specimen Id:
	G74_RT

Specimen Name:
	

Specimen Description:
	

Comment:
Scan Type: 2Theta Scan
Start Angle: 3 deg.
Stop Angle: 65 deg.
Num Points: 3101
Step Size: 0.02 deg.
Scan Rate: 1.000000
Scan Mode: Continuous
Wavelength: 1.540562
\Kalpha1: 1.540562	\Kalpha2: 1.544390	\Kbeta: 1.392218

Optics:
		Detector:
			 Type: Fixed Slits
		Tube: 
			 Type: Fixed Slits


Datas:
 Pos [deg]       Rate [CPS]      ESD [-]

Range 1 ---> Iteration 1
   3.000        436.67	    22.891
   3.020        477.50	    23.937
   3.040        439.17	    22.956
   3.060        432.50	    22.782
   3.080        451.67	    23.281
   3.100        476.67	    23.917
   3.120        420.00	    22.450
   3.140        425.83	    22.605
   3.160        472.50	    23.812
   3.180        428.33	    22.672
   3.200        465.83	    23.643
   3.220        446.67	    23.152
   3.240        375.00	    21.213
   3.260        444.17	    23.087
   3.280        400.83	    21.932
   3.300        390.00	    21.633
   3.320        417.50	    22.383
   3.340        408.33	    22.136
   3.360        385.83	    21.517
   3.380        360.83	    20.809
   3.400        395.83	    21.794
   3.420        388.33	    21.587
   3.440        383.33	    21.448
   3.460        387.50	    21.564
   3.480        396.67	    21.817
   3.500        378.33	    21.307
   3.520        351.67	    20.543
   3.540        370.00	    21.071
   3.560        341.67	    20.248
   3.580        388.33	    21.587
   3.600        344.17	    20.322
   3.620        366.67	    20.976
   3.640        347.50	    20.421
   3.660        349.17	    20.469
   3.680        372.50	    21.142
   3.700        363.33	    20.881
   3.720        382.50	    21.424
   3.740        346.67	    20.396
   3.760        343.33	    20.298
   3.780        371.67	    21.119
   3.800        345.00	    20.347
   3.820        320.83	    19.621
   3.840        379.17	    21.331
   3.860        356.67	    20.688
   3.880        313.33	    19.391
   3.900        351.67	    20.543
   3.920        323.33	    19.698
   3.940        312.50	    19.365
   3.960        318.33	    19.545
   3.980        317.50	    19.519
   4.000        327.50	    19.824
   4.020        344.17	    20.322
   4.040        330.83	    19.925
   4.060        329.17	    19.875
   4.080        336.67	    20.100
   4.100        326.67	    19.799
   4.120        331.67	    19.950
   4.140        319.17	    19.570
   4.160        300.83	    19.000
   4.180        326.67	    19.799
   4.200        313.33	    19.391
   4.220        296.67	    18.868
   4.240        295.83	    18.841
   4.260        327.50	    19.824
   4.280        285.00	    18.493
   4.300        317.50	    19.519
   4.320        295.83	    18.841
   4.340        289.17	    18.628
   4.360        307.50	    19.209
   4.380        301.67	    19.026
   4.400        293.33	    18.762
   4.420        269.17	    17.972
   4.440        297.50	    18.894
   4.460        294.17	    18.788
   4.480        305.83	    19.157
   4.500        288.33	    18.601
   4.520        296.67	    18.868
   4.540        289.17	    18.628
   4.560        307.50	    19.209
   4.580        278.33	    18.276
   4.600        263.33	    17.776
   4.620        275.00	    18.166
   4.640        254.17	    17.464
   4.660        283.33	    18.439
   4.680        289.17	    18.628
   4.700        259.17	    17.635
   4.720        276.67	    18.221
   4.740        250.00	    17.321
   4.760        287.50	    18.574
   4.780        261.67	    17.720
   4.800        271.67	    18.055
   4.820        264.17	    17.804
   4.840        243.33	    17.088
   4.860        280.83	    18.358
   4.880        235.83	    16.823
   4.900        249.17	    17.292
   4.920        255.00	    17.493
   4.940        234.17	    16.763
   4.960        236.67	    16.852
   4.980        235.00	    16.793
   5.000        238.33	    16.912
   5.020        245.83	    17.176
   5.040        260.83	    17.692
   5.060        235.00	    16.793
   5.080        220.00	    16.248
   5.100        285.00	    18.493
   5.120        242.50	    17.059
   5.140        212.50	    15.969
   5.160        255.83	    17.521
   5.180        248.33	    17.263
   5.200        252.50	    17.407
   5.220        225.83	    16.462
   5.240        236.67	    16.852
   5.260        245.83	    17.176
   5.280        208.33	    15.811
   5.300        230.00	    16.613
   5.320        248.33	    17.263
   5.340        230.83	    16.643
   5.360        219.17	    16.217
   5.380        222.50	    16.340
   5.400        225.00	    16.432
   5.420        253.33	    17.436
   5.440        220.83	    16.279
   5.460        240.83	    17.000
   5.480        210.83	    15.906
   5.500        238.33	    16.912
   5.520        239.17	    16.941
   5.540        220.83	    16.279
   5.560        215.00	    16.062
   5.580        217.50	    16.155
   5.600        205.83	    15.716
   5.620        220.83	    16.279
   5.640        228.33	    16.553
   5.660        219.17	    16.217
   5.680        223.33	    16.371
   5.700        212.50	    15.969
   5.720        214.17	    16.031
   5.740        237.50	    16.882
   5.760        219.17	    16.217
   5.780        230.83	    16.643
   5.800        270.00	    18.000
   5.820        218.33	    16.186
   5.840        202.50	    15.588
   5.860        208.33	    15.811
   5.880        245.00	    17.146
   5.900        229.17	    16.583
   5.920        241.67	    17.029
   5.940        211.67	    15.937
   5.960        240.83	    17.000
   5.980        231.67	    16.673
   6.000        236.67	    16.852
   6.020        231.67	    16.673
   6.040        258.33	    17.607
   6.060        232.50	    16.703
   6.080        264.17	    17.804
   6.100        298.33	    18.921
   6.120        290.00	    18.655
   6.140        275.83	    18.193
   6.160        287.50	    18.574
   6.180        247.50	    17.234
   6.200        203.33	    15.620
   6.220        216.67	    16.125
   6.240        219.17	    16.217
   6.260        235.00	    16.793
   6.280        189.17	    15.067
   6.300        197.50	    15.395
   6.320        186.67	    14.967
   6.340        211.67	    15.937
   6.360        191.67	    15.166
   6.380        190.00	    15.100
   6.400        201.67	    15.556
   6.420        185.83	    14.933
   6.440        183.33	    14.832
   6.460        178.33	    14.629
   6.480        181.67	    14.765
   6.500        190.83	    15.133
   6.520        197.50	    15.395
   6.540        199.17	    15.460
   6.560        188.33	    15.033
   6.580        191.67	    15.166
   6.600        185.83	    14.933
   6.620        194.17	    15.264
   6.640        190.00	    15.100
   6.660        182.50	    14.799
   6.680        205.83	    15.716
   6.700        172.50	    14.387
   6.720        189.17	    15.067
   6.740        167.50	    14.177
   6.760        185.83	    14.933
   6.780        160.83	    13.892
   6.800        179.17	    14.663
   6.820        183.33	    14.832
   6.840        178.33	    14.629
   6.860        156.67	    13.711
   6.880        180.00	    14.697
   6.900        166.67	    14.142
   6.920        177.50	    14.595
   6.940        170.00	    14.283
   6.960        180.83	    14.731
   6.980        170.00	    14.283
   7.000        175.00	    14.491
   7.020        167.50	    14.177
   7.040        170.83	    14.318
   7.060        154.17	    13.601
   7.080        179.17	    14.663
   7.100        149.17	    13.379
   7.120        163.33	    14.000
   7.140        166.67	    14.142
   7.160        178.33	    14.629
   7.180        160.83	    13.892
   7.200        148.33	    13.342
   7.220        160.83	    13.892
   7.240        183.33	    14.832
   7.260        165.00	    14.071
   7.280        167.50	    14.177
   7.300        170.83	    14.318
   7.320        166.67	    14.142
   7.340        152.50	    13.528
   7.360        165.00	    14.071
   7.380        137.50	    12.845
   7.400        160.00	    13.856
   7.420        165.83	    14.107
   7.440        160.83	    13.892
   7.460        153.33	    13.565
   7.480        154.17	    13.601
   7.500        175.83	    14.526
   7.520        149.17	    13.379
   7.540        163.33	    14.000
   7.560        148.33	    13.342
   7.580        166.67	    14.142
   7.600        169.17	    14.248
   7.620        176.67	    14.560
   7.640        150.00	    13.416
   7.660        160.00	    13.856
   7.680        163.33	    14.000
   7.700        138.33	    12.884
   7.720        171.67	    14.353
   7.740        167.50	    14.177
   7.760        146.67	    13.266
   7.780        154.17	    13.601
   7.800        164.17	    14.036
   7.820        159.17	    13.820
   7.840        168.33	    14.213
   7.860        160.83	    13.892
   7.880        172.50	    14.387
   7.900        149.17	    13.379
   7.920        179.17	    14.663
   7.940        132.50	    12.610
   7.960        144.17	    13.153
   7.980        149.17	    13.379
   8.000        165.83	    14.107
   8.020        143.33	    13.115
   8.040        147.50	    13.304
   8.060        155.83	    13.675
   8.080        163.33	    14.000
   8.100        168.33	    14.213
   8.120        132.50	    12.610
   8.140        157.50	    13.748
   8.160        145.83	    13.229
   8.180        145.83	    13.229
   8.200        153.33	    13.565
   8.220        155.83	    13.675
   8.240        155.00	    13.638
   8.260        149.17	    13.379
   8.280        162.50	    13.964
   8.300        150.00	    13.416
   8.320        161.67	    13.928
   8.340        155.00	    13.638
   8.360        149.17	    13.379
   8.380        150.00	    13.416
   8.400        155.83	    13.675
   8.420        174.17	    14.457
   8.440        165.83	    14.107
   8.460        162.50	    13.964
   8.480        174.17	    14.457
   8.500        191.67	    15.166
   8.520        164.17	    14.036
   8.540        189.17	    15.067
   8.560        214.17	    16.031
   8.580        185.00	    14.900
   8.600        240.00	    16.971
   8.620        295.00	    18.815
   8.640        307.50	    19.209
   8.660        320.83	    19.621
   8.680        350.83	    20.518
   8.700        356.67	    20.688
   8.720        385.00	    21.494
   8.740        550.83	    25.710
   8.760        648.33	    27.893
   8.780        707.50	    29.138
   8.800        595.00	    26.721
   8.820        420.00	    22.450
   8.840        275.00	    18.166
   8.860        173.33	    14.422
   8.880        177.50	    14.595
   8.900        134.17	    12.689
   8.920        155.00	    13.638
   8.940        158.33	    13.784
   8.960        154.17	    13.601
   8.980        162.50	    13.964
   9.000        150.83	    13.454
   9.020        163.33	    14.000
   9.040        140.83	    13.000
   9.060        158.33	    13.784
   9.080        150.83	    13.454
   9.100        145.83	    13.229
   9.120        129.17	    12.450
   9.140        117.50	    11.874
   9.160        130.83	    12.530
   9.180        141.67	    13.038
   9.200        124.17	    12.207
   9.220        130.83	    12.530
   9.240        137.50	    12.845
   9.260        135.00	    12.728
   9.280        128.33	    12.410
   9.300        127.50	    12.369
   9.320        152.50	    13.528
   9.340        127.50	    12.369
   9.360        165.83	    14.107
   9.380        139.17	    12.923
   9.400        144.17	    13.153
   9.420        111.67	    11.576
   9.440        136.67	    12.806
   9.460        126.67	    12.329
   9.480        128.33	    12.410
   9.500        129.17	    12.450
   9.520        121.67	    12.083
   9.540        115.83	    11.790
   9.560        130.83	    12.530
   9.580        122.50	    12.124
   9.600        122.50	    12.124
   9.620        120.00	    12.000
   9.640        100.83	    11.000
   9.660        118.33	    11.916
   9.680        105.83	    11.269
   9.700        109.17	    11.446
   9.720        110.00	    11.489
   9.740        111.67	    11.576
   9.760        100.00	    10.954
   9.780        121.67	    12.083
   9.800        119.17	    11.958
   9.820        105.83	    11.269
   9.840        122.50	    12.124
   9.860        127.50	    12.369
   9.880        110.00	    11.489
   9.900        122.50	    12.124
   9.920        119.17	    11.958
   9.940        120.00	    12.000
   9.960        108.33	    11.402
   9.980        107.50	    11.358
  10.000        101.67	    11.045
  10.020        119.17	    11.958
  10.040        107.50	    11.358
  10.060        121.67	    12.083
  10.080        118.33	    11.916
  10.100        102.50	    11.091
  10.120        100.00	    10.954
  10.140         93.33	    10.583
  10.160        110.00	    11.489
  10.180        108.33	    11.402
  10.200        103.33	    11.136
  10.220        109.17	    11.446
  10.240        119.17	    11.958
  10.260        107.50	    11.358
  10.280         97.50	    10.817
  10.300        120.00	    12.000
  10.320        106.67	    11.314
  10.340        115.00	    11.747
  10.360        156.67	    13.711
  10.380        164.17	    14.036
  10.400        198.33	    15.427
  10.420        202.50	    15.588
  10.440        173.33	    14.422
  10.460        140.00	    12.961
  10.480        134.17	    12.689
  10.500        114.17	    11.705
  10.520        116.67	    11.832
  10.540        104.17	    11.180
  10.560        107.50	    11.358
  10.580        105.83	    11.269
  10.600        113.33	    11.662
  10.620        109.17	    11.446
  10.640        104.17	    11.180
  10.660         90.00	    10.392
  10.680         90.00	    10.392
  10.700        105.00	    11.225
  10.720        105.83	    11.269
  10.740        103.33	    11.136
  10.760        105.00	    11.225
  10.780        100.83	    11.000
  10.800         98.33	    10.863
  10.820         85.83	    10.149
  10.840        100.00	    10.954
  10.860        120.83	    12.042
  10.880        112.50	    11.619
  10.900        106.67	    11.314
  10.920         93.33	    10.583
  10.940        106.67	    11.314
  10.960         97.50	    10.817
  10.980         98.33	    10.863
  11.000        100.83	    11.000
  11.020         97.50	    10.817
  11.040         98.33	    10.863
  11.060        101.67	    11.045
  11.080         88.33	    10.296
  11.100        100.00	    10.954
  11.120         82.50	     9.950
  11.140        106.67	    11.314
  11.160        120.83	    12.042
  11.180        110.00	    11.489
  11.200         95.00	    10.677
  11.220        106.67	    11.314
  11.240         82.50	     9.950
  11.260        108.33	    11.402
  11.280        100.83	    11.000
  11.300         92.50	    10.536
  11.320         88.33	    10.296
  11.340        100.00	    10.954
  11.360        105.00	    11.225
  11.380        110.83	    11.533
  11.400        107.50	    11.358
  11.420        110.00	    11.489
  11.440         90.00	    10.392
  11.460         85.83	    10.149
  11.480         95.00	    10.677
  11.500        104.17	    11.180
  11.520         89.17	    10.344
  11.540        114.17	    11.705
  11.560        100.00	    10.954
  11.580         99.17	    10.909
  11.600        102.50	    11.091
  11.620        100.00	    10.954
  11.640         91.67	    10.488
  11.660         95.83	    10.724
  11.680         96.67	    10.770
  11.700         92.50	    10.536
  11.720         97.50	    10.817
  11.740         84.17	    10.050
  11.760         89.17	    10.344
  11.780         93.33	    10.583
  11.800        111.67	    11.576
  11.820        102.50	    11.091
  11.840        103.33	    11.136
  11.860        110.00	    11.489
  11.880        109.17	    11.446
  11.900        106.67	    11.314
  11.920        100.00	    10.954
  11.940        109.17	    11.446
  11.960        111.67	    11.576
  11.980        137.50	    12.845
  12.000        145.00	    13.191
  12.020        168.33	    14.213
  12.040        187.50	    15.000
  12.060        245.83	    17.176
  12.080        345.00	    20.347
  12.100        356.67	    20.688
  12.120        294.17	    18.788
  12.140        243.33	    17.088
  12.160        188.33	    15.033
  12.180        167.50	    14.177
  12.200        158.33	    13.784
  12.220        158.33	    13.784
  12.240        174.17	    14.457
  12.260        172.50	    14.387
  12.280        180.83	    14.731
  12.300        182.50	    14.799
  12.320        195.00	    15.297
  12.340        233.33	    16.733
  12.360        273.33	    18.111
  12.380        336.67	    20.100
  12.400        365.00	    20.928
  12.420        342.50	    20.273
  12.440        235.83	    16.823
  12.460        150.00	    13.416
  12.480        113.33	    11.662
  12.500        105.83	    11.269
  12.520        110.00	    11.489
  12.540        100.00	    10.954
  12.560        110.83	    11.533
  12.580         89.17	    10.344
  12.600         80.00	     9.798
  12.620         93.33	    10.583
  12.640         90.00	    10.392
  12.660         95.00	    10.677
  12.680         85.83	    10.149
  12.700         78.33	     9.695
  12.720         85.83	    10.149
  12.740         80.00	     9.798
  12.760         80.83	     9.849
  12.780        105.00	    11.225
  12.800         73.33	     9.381
  12.820         90.83	    10.440
  12.840         80.00	     9.798
  12.860         87.50	    10.247
  12.880         95.83	    10.724
  12.900         70.83	     9.220
  12.920         91.67	    10.488
  12.940         85.83	    10.149
  12.960         94.17	    10.630
  12.980         95.00	    10.677
  13.000         75.83	     9.539
  13.020         92.50	    10.536
  13.040         75.00	     9.487
  13.060         81.67	     9.899
  13.080         89.17	    10.344
  13.100         71.67	     9.274
  13.120         85.00	    10.100
  13.140         83.33	    10.000
  13.160         75.00	     9.487
  13.180         70.00	     9.165
  13.200         90.00	    10.392
  13.220         76.67	     9.592
  13.240         77.50	     9.644
  13.260        105.83	    11.269
  13.280         60.00	     8.485
  13.300         75.83	     9.539
  13.320         78.33	     9.695
  13.340         85.83	    10.149
  13.360         77.50	     9.644
  13.380         85.00	    10.100
  13.400         84.17	    10.050
  13.420         90.00	    10.392
  13.440         82.50	     9.950
  13.460         79.17	     9.747
  13.480         91.67	    10.488
  13.500         82.50	     9.950
  13.520         95.00	    10.677
  13.540        109.17	    11.446
  13.560        114.17	    11.705
  13.580        111.67	    11.576
  13.600         78.33	     9.695
  13.620         69.17	     9.110
  13.640         91.67	    10.488
  13.660         68.33	     9.055
  13.680         88.33	    10.296
  13.700         90.00	    10.392
  13.720        105.83	    11.269
  13.740        115.00	    11.747
  13.760        116.67	    11.832
  13.780         97.50	    10.817
  13.800        104.17	    11.180
  13.820         84.17	    10.050
  13.840         79.17	     9.747
  13.860         93.33	    10.583
  13.880         94.17	    10.630
  13.900         85.00	    10.100
  13.920        104.17	    11.180
  13.940         91.67	    10.488
  13.960         82.50	     9.950
  13.980         88.33	    10.296
  14.000         76.67	     9.592
  14.020         61.67	     8.602
  14.040         82.50	     9.950
  14.060         75.00	     9.487
  14.080         89.17	    10.344
  14.100         66.67	     8.944
  14.120         75.83	     9.539
  14.140         80.00	     9.798
  14.160         81.67	     9.899
  14.180         70.83	     9.220
  14.200         87.50	    10.247
  14.220         72.50	     9.327
  14.240         81.67	     9.899
  14.260         85.00	    10.100
  14.280         83.33	    10.000
  14.300         63.33	     8.718
  14.320         80.00	     9.798
  14.340         69.17	     9.110
  14.360         66.67	     8.944
  14.380         59.17	     8.426
  14.400         82.50	     9.950
