
Filename:
	C:\Program Files\Thermo Electron\WinXRD\Datafiles\F_HERMAN\GEO\G75_RT.raw

File Created:
	February 21, 2020 - 10:42 PM

Specimen Id:
	G75_RT

Specimen Name:
	

Specimen Description:
	

Comment:
Scan Type: 2Theta Scan
Start Angle: 3 deg.
Stop Angle: 65 deg.
Num Points: 3101
Step Size: 0.02 deg.
Scan Rate: 1.000000
Scan Mode: Continuous
Wavelength: 1.540562
\Kalpha1: 1.540562	\Kalpha2: 1.544390	\Kbeta: 1.392218

Optics:
		Detector:
			 Type: Fixed Slits
		Tube: 
			 Type: Fixed Slits


Datas:
 Pos [deg]       Rate [CPS]      ESD [-]

Range 1 ---> Iteration 1
   3.000        455.00	    23.367
   3.020        471.67	    23.791
   3.040        417.50	    22.383
   3.060        452.50	    23.302
   3.080        411.67	    22.226
   3.100        423.33	    22.539
   3.120        400.00	    21.909
   3.140        439.17	    22.956
   3.160        426.67	    22.627
   3.180        371.67	    21.119
   3.200        457.50	    23.431
   3.220        389.17	    21.610
   3.240        410.00	    22.181
   3.260        408.33	    22.136
   3.280        396.67	    21.817
   3.300        405.83	    22.068
   3.320        406.67	    22.091
   3.340        380.00	    21.354
   3.360        412.50	    22.249
   3.380        417.50	    22.383
   3.400        366.67	    20.976
   3.420        393.33	    21.726
   3.440        388.33	    21.587
   3.460        401.67	    21.954
   3.480        409.17	    22.159
   3.500        374.17	    21.190
   3.520        368.33	    21.024
   3.540        365.83	    20.952
   3.560        357.50	    20.712
   3.580        374.17	    21.190
   3.600        392.50	    21.703
   3.620        354.17	    20.616
   3.640        376.67	    21.260
   3.660        355.83	    20.664
   3.680        365.83	    20.952
   3.700        380.83	    21.378
   3.720        349.17	    20.469
   3.740        339.17	    20.174
   3.760        345.00	    20.347
   3.780        336.67	    20.100
   3.800        345.83	    20.372
   3.820        344.17	    20.322
   3.840        311.67	    19.339
   3.860        318.33	    19.545
   3.880        323.33	    19.698
   3.900        345.83	    20.372
   3.920        330.83	    19.925
   3.940        373.33	    21.166
   3.960        348.33	    20.445
   3.980        307.50	    19.209
   4.000        352.50	    20.567
   4.020        340.83	    20.224
   4.040        334.17	    20.025
   4.060        322.50	    19.672
   4.080        336.67	    20.100
   4.100        345.00	    20.347
   4.120        315.00	    19.442
   4.140        324.17	    19.723
   4.160        290.00	    18.655
   4.180        302.50	    19.053
   4.200        338.33	    20.149
   4.220        308.33	    19.235
   4.240        296.67	    18.868
   4.260        309.17	    19.261
   4.280        272.50	    18.083
   4.300        292.50	    18.735
   4.320        274.17	    18.138
   4.340        321.67	    19.647
   4.360        283.33	    18.439
   4.380        302.50	    19.053
   4.400        340.83	    20.224
   4.420        274.17	    18.138
   4.440        295.83	    18.841
   4.460        276.67	    18.221
   4.480        265.83	    17.861
   4.500        266.67	    17.889
   4.520        278.33	    18.276
   4.540        301.67	    19.026
   4.560        287.50	    18.574
   4.580        285.83	    18.520
   4.600        267.50	    17.916
   4.620        278.33	    18.276
   4.640        265.00	    17.833
   4.660        301.67	    19.026
   4.680        283.33	    18.439
   4.700        276.67	    18.221
   4.720        292.50	    18.735
   4.740        282.50	    18.412
   4.760        258.33	    17.607
   4.780        293.33	    18.762
   4.800        264.17	    17.804
   4.820        253.33	    17.436
   4.840        250.00	    17.321
   4.860        258.33	    17.607
   4.880        260.00	    17.664
   4.900        242.50	    17.059
   4.920        262.50	    17.748
   4.940        237.50	    16.882
   4.960        225.83	    16.462
   4.980        269.17	    17.972
   5.000        230.83	    16.643
   5.020        253.33	    17.436
   5.040        275.83	    18.193
   5.060        271.67	    18.055
   5.080        245.00	    17.146
   5.100        258.33	    17.607
   5.120        265.83	    17.861
   5.140        240.83	    17.000
   5.160        248.33	    17.263
   5.180        244.17	    17.117
   5.200        207.50	    15.780
   5.220        226.67	    16.492
   5.240        233.33	    16.733
   5.260        260.00	    17.664
   5.280        245.00	    17.146
   5.300        248.33	    17.263
   5.320        232.50	    16.703
   5.340        239.17	    16.941
   5.360        242.50	    17.059
   5.380        245.83	    17.176
   5.400        243.33	    17.088
   5.420        222.50	    16.340
   5.440        229.17	    16.583
   5.460        223.33	    16.371
   5.480        237.50	    16.882
   5.500        235.83	    16.823
   5.520        240.83	    17.000
   5.540        257.50	    17.578
   5.560        207.50	    15.780
   5.580        230.00	    16.613
   5.600        244.17	    17.117
   5.620        233.33	    16.733
   5.640        225.83	    16.462
   5.660        218.33	    16.186
   5.680        223.33	    16.371
   5.700        256.67	    17.550
   5.720        215.83	    16.093
   5.740        213.33	    16.000
   5.760        193.33	    15.232
   5.780        251.67	    17.378
   5.800        241.67	    17.029
   5.820        235.00	    16.793
   5.840        240.00	    16.971
   5.860        272.50	    18.083
   5.880        256.67	    17.550
   5.900        280.83	    18.358
   5.920        272.50	    18.083
   5.940        257.50	    17.578
   5.960        275.00	    18.166
   5.980        272.50	    18.083
   6.000        265.83	    17.861
   6.020        311.67	    19.339
   6.040        340.83	    20.224
   6.060        364.17	    20.905
   6.080        340.83	    20.224
   6.100        360.83	    20.809
   6.120        365.83	    20.952
   6.140        365.83	    20.952
   6.160        270.00	    18.000
   6.180        230.00	    16.613
   6.200        248.33	    17.263
   6.220        207.50	    15.780
   6.240        235.00	    16.793
   6.260        205.00	    15.684
   6.280        232.50	    16.703
   6.300        202.50	    15.588
   6.320        191.67	    15.166
   6.340        222.50	    16.340
   6.360        210.00	    15.875
   6.380        212.50	    15.969
   6.400        205.00	    15.684
   6.420        213.33	    16.000
   6.440        195.83	    15.330
   6.460        209.17	    15.843
   6.480        194.17	    15.264
   6.500        195.00	    15.297
   6.520        193.33	    15.232
   6.540        200.83	    15.524
   6.560        194.17	    15.264
   6.580        194.17	    15.264
   6.600        202.50	    15.588
   6.620        201.67	    15.556
   6.640        199.17	    15.460
   6.660        202.50	    15.588
   6.680        201.67	    15.556
   6.700        180.00	    14.697
   6.720        196.67	    15.362
   6.740        216.67	    16.125
   6.760        186.67	    14.967
   6.780        187.50	    15.000
   6.800        194.17	    15.264
   6.820        182.50	    14.799
   6.840        195.00	    15.297
   6.860        182.50	    14.799
   6.880        205.83	    15.716
   6.900        188.33	    15.033
   6.920        184.17	    14.866
   6.940        187.50	    15.000
   6.960        185.00	    14.900
   6.980        165.00	    14.071
   7.000        198.33	    15.427
   7.020        172.50	    14.387
   7.040        179.17	    14.663
   7.060        175.00	    14.491
   7.080        199.17	    15.460
   7.100        188.33	    15.033
   7.120        161.67	    13.928
   7.140        180.83	    14.731
   7.160        194.17	    15.264
   7.180        178.33	    14.629
   7.200        175.83	    14.526
   7.220        185.83	    14.933
   7.240        169.17	    14.248
   7.260        189.17	    15.067
   7.280        188.33	    15.033
   7.300        173.33	    14.422
   7.320        163.33	    14.000
   7.340        175.00	    14.491
   7.360        160.83	    13.892
   7.380        163.33	    14.000
   7.400        160.83	    13.892
   7.420        183.33	    14.832
   7.440        150.00	    13.416
   7.460        156.67	    13.711
   7.480        171.67	    14.353
   7.500        174.17	    14.457
   7.520        166.67	    14.142
   7.540        160.00	    13.856
   7.560        177.50	    14.595
   7.580        155.00	    13.638
   7.600        156.67	    13.711
   7.620        158.33	    13.784
   7.640        152.50	    13.528
   7.660        176.67	    14.560
   7.680        151.67	    13.491
   7.700        141.67	    13.038
   7.720        151.67	    13.491
   7.740        157.50	    13.748
   7.760        142.50	    13.077
   7.780        160.83	    13.892
   7.800        174.17	    14.457
   7.820        138.33	    12.884
   7.840        155.83	    13.675
   7.860        153.33	    13.565
   7.880        150.83	    13.454
   7.900        186.67	    14.967
   7.920        176.67	    14.560
   7.940        143.33	    13.115
   7.960        155.83	    13.675
   7.980        167.50	    14.177
   8.000        164.17	    14.036
   8.020        165.00	    14.071
   8.040        149.17	    13.379
   8.060        159.17	    13.820
   8.080        157.50	    13.748
   8.100        157.50	    13.748
   8.120        134.17	    12.689
   8.140        162.50	    13.964
   8.160        153.33	    13.565
   8.180        151.67	    13.491
   8.200        165.83	    14.107
   8.220        138.33	    12.884
   8.240        152.50	    13.528
   8.260        144.17	    13.153
   8.280        155.83	    13.675
   8.300        147.50	    13.304
   8.320        148.33	    13.342
   8.340        173.33	    14.422
   8.360        152.50	    13.528
   8.380        153.33	    13.565
   8.400        165.00	    14.071
   8.420        135.00	    12.728
   8.440        175.83	    14.526
   8.460        185.83	    14.933
   8.480        173.33	    14.422
   8.500        183.33	    14.832
   8.520        170.00	    14.283
   8.540        188.33	    15.033
   8.560        199.17	    15.460
   8.580        206.67	    15.748
   8.600        217.50	    16.155
   8.620        220.00	    16.248
   8.640        255.83	    17.521
   8.660        278.33	    18.276
   8.680        284.17	    18.466
   8.700        316.67	    19.494
   8.720        398.33	    21.863
   8.740        541.67	    25.495
   8.760        718.33	    29.360
   8.780        729.17	    29.580
   8.800        603.33	    26.907
   8.820        400.00	    21.909
   8.840        260.00	    17.664
   8.860        175.83	    14.526
   8.880        185.00	    14.900
   8.900        146.67	    13.266
   8.920        167.50	    14.177
   8.940        163.33	    14.000
   8.960        150.83	    13.454
   8.980        159.17	    13.820
   9.000        153.33	    13.565
   9.020        135.83	    12.767
   9.040        137.50	    12.845
   9.060        152.50	    13.528
   9.080        135.00	    12.728
   9.100        123.33	    12.166
   9.120        148.33	    13.342
   9.140        139.17	    12.923
   9.160        150.00	    13.416
   9.180        139.17	    12.923
   9.200        140.83	    13.000
   9.220        135.00	    12.728
   9.240        136.67	    12.806
   9.260        142.50	    13.077
   9.280        145.83	    13.229
   9.300        156.67	    13.711
   9.320        180.83	    14.731
   9.340        200.00	    15.492
   9.360        197.50	    15.395
   9.380        171.67	    14.353
   9.400        119.17	    11.958
   9.420        127.50	    12.369
   9.440        125.83	    12.288
   9.460        134.17	    12.689
   9.480        127.50	    12.369
   9.500        143.33	    13.115
   9.520        111.67	    11.576
   9.540        125.00	    12.247
   9.560        118.33	    11.916
   9.580        130.00	    12.490
   9.600        116.67	    11.832
   9.620        103.33	    11.136
   9.640        117.50	    11.874
   9.660         99.17	    10.909
   9.680        128.33	    12.410
   9.700        115.00	    11.747
   9.720        107.50	    11.358
   9.740        125.83	    12.288
   9.760        128.33	    12.410
   9.780        125.00	    12.247
   9.800        119.17	    11.958
   9.820        100.83	    11.000
   9.840        120.83	    12.042
   9.860        116.67	    11.832
   9.880        138.33	    12.884
   9.900        120.83	    12.042
   9.920         99.17	    10.909
   9.940        140.83	    13.000
   9.960        115.83	    11.790
   9.980        110.83	    11.533
  10.000        116.67	    11.832
  10.020        109.17	    11.446
  10.040        128.33	    12.410
  10.060         99.17	    10.909
  10.080        100.83	    11.000
  10.100         94.17	    10.630
  10.120        130.00	    12.490
  10.140        104.17	    11.180
  10.160        119.17	    11.958
  10.180        111.67	    11.576
  10.200        130.00	    12.490
  10.220        110.00	    11.489
  10.240        136.67	    12.806
  10.260        108.33	    11.402
  10.280        125.83	    12.288
  10.300        104.17	    11.180
  10.320        120.00	    12.000
  10.340        120.83	    12.042
  10.360        148.33	    13.342
  10.380        170.83	    14.318
  10.400        180.83	    14.731
  10.420        294.17	    18.788
  10.440        322.50	    19.672
  10.460        235.00	    16.793
  10.480        145.83	    13.229
  10.500        163.33	    14.000
  10.520        120.83	    12.042
  10.540         96.67	    10.770
  10.560        116.67	    11.832
  10.580        102.50	    11.091
  10.600        105.00	    11.225
  10.620         91.67	    10.488
  10.640        115.00	    11.747
  10.660         93.33	    10.583
  10.680         92.50	    10.536
  10.700        100.83	    11.000
  10.720        120.00	    12.000
  10.740         83.33	    10.000
  10.760        117.50	    11.874
  10.780         99.17	    10.909
  10.800         88.33	    10.296
  10.820         90.83	    10.440
  10.840        100.00	    10.954
  10.860        105.83	    11.269
  10.880        103.33	    11.136
  10.900        142.50	    13.077
  10.920        105.83	    11.269
  10.940        100.00	    10.954
  10.960        105.00	    11.225
  10.980        110.00	    11.489
  11.000        103.33	    11.136
  11.020        115.83	    11.790
  11.040        103.33	    11.136
  11.060        100.83	    11.000
  11.080        120.00	    12.000
  11.100        110.00	    11.489
  11.120        110.00	    11.489
  11.140        105.00	    11.225
  11.160         93.33	    10.583
  11.180        102.50	    11.091
  11.200        103.33	    11.136
  11.220         78.33	     9.695
  11.240        108.33	    11.402
  11.260        112.50	    11.619
  11.280        107.50	    11.358
  11.300        100.83	    11.000
  11.320        100.00	    10.954
  11.340        108.33	    11.402
  11.360         85.83	    10.149
  11.380        111.67	    11.576
  11.400         95.00	    10.677
  11.420        108.33	    11.402
  11.440        112.50	    11.619
  11.460         76.67	     9.592
  11.480         93.33	    10.583
  11.500         93.33	    10.583
  11.520        107.50	    11.358
  11.540        106.67	    11.314
  11.560        107.50	    11.358
  11.580        111.67	    11.576
  11.600        109.17	    11.446
  11.620        105.00	    11.225
  11.640        107.50	    11.358
  11.660        108.33	    11.402
  11.680        105.00	    11.225
  11.700        117.50	    11.874
  11.720         95.83	    10.724
  11.740        123.33	    12.166
  11.760        107.50	    11.358
  11.780        117.50	    11.874
  11.800        120.00	    12.000
  11.820        113.33	    11.662
  11.840        120.83	    12.042
  11.860        115.00	    11.747
  11.880        133.33	    12.649
  11.900        151.67	    13.491
  11.920        142.50	    13.077
  11.940        150.83	    13.454
  11.960        169.17	    14.248
  11.980        195.83	    15.330
  12.000        246.67	    17.205
  12.020        383.33	    21.448
  12.040        519.17	    24.960
  12.060        808.33	    31.145
  12.080        992.50	    34.511
  12.100       1033.33	    35.214
  12.120        810.83	    31.193
  12.140        524.17	    25.080
  12.160        292.50	    18.735
  12.180        265.83	    17.861
  12.200        301.67	    19.026
  12.220        311.67	    19.339
  12.240        402.50	    21.977
  12.260        392.50	    21.703
  12.280        385.83	    21.517
  12.300        330.83	    19.925
  12.320        334.17	    20.025
  12.340        372.50	    21.142
  12.360        418.33	    22.405
  12.380        456.67	    23.409
  12.400        437.50	    22.913
  12.420        383.33	    21.448
  12.440        247.50	    17.234
  12.460        155.00	    13.638
  12.480        121.67	    12.083
  12.500        114.17	    11.705
  12.520        105.83	    11.269
  12.540        121.67	    12.083
  12.560        123.33	    12.166
  12.580        109.17	    11.446
  12.600         99.17	    10.909
  12.620         99.17	    10.909
  12.640         92.50	    10.536
  12.660         86.67	    10.198
  12.680         97.50	    10.817
  12.700         94.17	    10.630
  12.720        106.67	    11.314
  12.740         99.17	    10.909
  12.760        103.33	    11.136
  12.780        103.33	    11.136
  12.800         87.50	    10.247
  12.820         96.67	    10.770
  12.840         89.17	    10.344
  12.860        100.83	    11.000
  12.880         81.67	     9.899
  12.900         81.67	     9.899
  12.920         79.17	     9.747
  12.940         77.50	     9.644
  12.960         89.17	    10.344
  12.980         95.83	    10.724
  13.000         75.00	     9.487
  13.020         96.67	    10.770
  13.040         82.50	     9.950
  13.060         89.17	    10.344
  13.080        102.50	    11.091
  13.100         80.00	     9.798
  13.120         91.67	    10.488
  13.140         84.17	    10.050
  13.160         96.67	    10.770
  13.180        100.83	    11.000
  13.200         98.33	    10.863
  13.220         98.33	    10.863
  13.240         99.17	    10.909
  13.260         89.17	    10.344
  13.280         85.00	    10.100
  13.300         90.83	    10.440
  13.320         90.00	    10.392
  13.340         98.33	    10.863
  13.360        105.83	    11.269
  13.380         97.50	    10.817
  13.400         94.17	    10.630
  13.420         73.33	     9.381
  13.440         81.67	     9.899
  13.460         92.50	    10.536
  13.480         88.33	    10.296
  13.500         87.50	    10.247
  13.520         95.00	    10.677
  13.540         78.33	     9.695
  13.560         95.00	    10.677
  13.580        101.67	    11.045
  13.600         94.17	    10.630
  13.620         79.17	     9.747
  13.640         99.17	    10.909
  13.660         75.00	     9.487
  13.680        103.33	    11.136
  13.700         99.17	    10.909
  13.720         92.50	    10.536
  13.740         97.50	    10.817
  13.760        107.50	    11.358
  13.780        103.33	    11.136
  13.800         87.50	    10.247
  13.820         91.67	    10.488
  13.840         77.50	     9.644
  13.860         75.00	     9.487
  13.880         88.33	    10.296
  13.900         78.33	     9.695
  13.920         87.50	    10.247
  13.940         85.00	    10.100
  13.960         81.67	     9.899
  13.980         95.00	    10.677
  14.000         70.00	     9.165
  14.020         65.00	     8.832
  14.040         70.00	     9.165
  14.060         75.00	     9.487
  14.080         75.83	     9.539
  14.100         80.00	     9.798
  14.120         83.33	    10.000
  14.140         65.83	     8.888
  14.160         64.17	     8.775
  14.180         65.00	     8.832
  14.200         79.17	     9.747
  14.220         97.50	    10.817
  14.240         64.17	     8.775
  14.260         80.00	     9.798
  14.280         80.00	     9.798
  14.300         86.67	    10.198
  14.320         84.17	    10.050
  14.340         71.67	     9.274
  14.360         65.83	     8.888
  14.380         85.00	    10.100
  14.400         80.00	     9.798
