
Filename:
	C:\Program Files\Thermo Electron\WinXRD\Datafiles\F_HERMAN\GEO\G76_RT.raw

File Created:
	February 21, 2020 - 12:11 AM

Specimen Id:
	G76_RT

Specimen Name:
	

Specimen Description:
	

Comment:
Scan Type: 2Theta Scan
Start Angle: 3 deg.
Stop Angle: 65 deg.
Num Points: 3101
Step Size: 0.02 deg.
Scan Rate: 1.000000
Scan Mode: Continuous
Wavelength: 1.540562
\Kalpha1: 1.540562	\Kalpha2: 1.544390	\Kbeta: 1.392218

Optics:
		Detector:
			 Type: Fixed Slits
		Tube: 
			 Type: Fixed Slits


Datas:
 Pos [deg]       Rate [CPS]      ESD [-]

Range 1 ---> Iteration 1
   3.000        454.17	    23.345
   3.020        425.83	    22.605
   3.040        413.33	    22.271
   3.060        445.83	    23.130
   3.080        411.67	    22.226
   3.100        453.33	    23.324
   3.120        450.00	    23.238
   3.140        375.00	    21.213
   3.160        390.00	    21.633
   3.180        427.50	    22.650
   3.200        427.50	    22.650
   3.220        439.17	    22.956
   3.240        392.50	    21.703
   3.260        373.33	    21.166
   3.280        415.83	    22.338
   3.300        417.50	    22.383
   3.320        395.00	    21.772
   3.340        420.83	    22.472
   3.360        387.50	    21.564
   3.380        400.83	    21.932
   3.400        382.50	    21.424
   3.420        376.67	    21.260
   3.440        388.33	    21.587
   3.460        348.33	    20.445
   3.480        362.50	    20.857
   3.500        350.83	    20.518
   3.520        358.33	    20.736
   3.540        345.00	    20.347
   3.560        366.67	    20.976
   3.580        381.67	    21.401
   3.600        339.17	    20.174
   3.620        380.00	    21.354
   3.640        362.50	    20.857
   3.660        324.17	    19.723
   3.680        340.00	    20.199
   3.700        349.17	    20.469
   3.720        360.00	    20.785
   3.740        325.83	    19.774
   3.760        320.83	    19.621
   3.780        345.83	    20.372
   3.800        315.83	    19.468
   3.820        360.83	    20.809
   3.840        336.67	    20.100
   3.860        335.83	    20.075
   3.880        317.50	    19.519
   3.900        321.67	    19.647
   3.920        323.33	    19.698
   3.940        335.00	    20.050
   3.960        312.50	    19.365
   3.980        322.50	    19.672
   4.000        322.50	    19.672
   4.020        327.50	    19.824
   4.040        290.83	    18.682
   4.060        299.17	    18.947
   4.080        293.33	    18.762
   4.100        317.50	    19.519
   4.120        310.83	    19.313
   4.140        324.17	    19.723
   4.160        316.67	    19.494
   4.180        268.33	    17.944
   4.200        283.33	    18.439
   4.220        309.17	    19.261
   4.240        304.17	    19.105
   4.260        260.83	    17.692
   4.280        307.50	    19.209
   4.300        303.33	    19.079
   4.320        267.50	    17.916
   4.340        273.33	    18.111
   4.360        288.33	    18.601
   4.380        295.00	    18.815
   4.400        293.33	    18.762
   4.420        270.83	    18.028
   4.440        230.00	    16.613
   4.460        285.83	    18.520
   4.480        283.33	    18.439
   4.500        300.83	    19.000
   4.520        264.17	    17.804
   4.540        276.67	    18.221
   4.560        262.50	    17.748
   4.580        262.50	    17.748
   4.600        252.50	    17.407
   4.620        245.00	    17.146
   4.640        260.83	    17.692
   4.660        257.50	    17.578
   4.680        256.67	    17.550
   4.700        264.17	    17.804
   4.720        253.33	    17.436
   4.740        234.17	    16.763
   4.760        224.17	    16.401
   4.780        272.50	    18.083
   4.800        250.00	    17.321
   4.820        230.83	    16.643
   4.840        239.17	    16.941
   4.860        225.83	    16.462
   4.880        259.17	    17.635
   4.900        254.17	    17.464
   4.920        250.00	    17.321
   4.940        234.17	    16.763
   4.960        250.00	    17.321
   4.980        245.83	    17.176
   5.000        227.50	    16.523
   5.020        248.33	    17.263
   5.040        255.00	    17.493
   5.060        249.17	    17.292
   5.080        246.67	    17.205
   5.100        245.00	    17.146
   5.120        241.67	    17.029
   5.140        228.33	    16.553
   5.160        232.50	    16.703
   5.180        245.83	    17.176
   5.200        235.00	    16.793
   5.220        228.33	    16.553
   5.240        225.83	    16.462
   5.260        232.50	    16.703
   5.280        248.33	    17.263
   5.300        205.00	    15.684
   5.320        209.17	    15.843
   5.340        220.00	    16.248
   5.360        227.50	    16.523
   5.380        202.50	    15.588
   5.400        233.33	    16.733
   5.420        209.17	    15.843
   5.440        207.50	    15.780
   5.460        233.33	    16.733
   5.480        198.33	    15.427
   5.500        235.00	    16.793
   5.520        210.00	    15.875
   5.540        212.50	    15.969
   5.560        193.33	    15.232
   5.580        201.67	    15.556
   5.600        233.33	    16.733
   5.620        221.67	    16.310
   5.640        204.17	    15.652
   5.660        219.17	    16.217
   5.680        228.33	    16.553
   5.700        217.50	    16.155
   5.720        230.00	    16.613
   5.740        230.00	    16.613
   5.760        207.50	    15.780
   5.780        230.00	    16.613
   5.800        222.50	    16.340
   5.820        251.67	    17.378
   5.840        225.83	    16.462
   5.860        273.33	    18.111
   5.880        276.67	    18.221
   5.900        295.00	    18.815
   5.920        315.83	    19.468
   5.940        385.00	    21.494
   5.960        402.50	    21.977
   5.980        340.00	    20.199
   6.000        357.50	    20.712
   6.020        342.50	    20.273
   6.040        318.33	    19.545
   6.060        323.33	    19.698
   6.080        330.00	    19.900
   6.100        275.00	    18.166
   6.120        315.83	    19.468
   6.140        354.17	    20.616
   6.160        378.33	    21.307
   6.180        372.50	    21.142
   6.200        463.33	    23.580
   6.220        420.83	    22.472
   6.240        409.17	    22.159
   6.260        325.83	    19.774
   6.280        310.83	    19.313
   6.300        265.83	    17.861
   6.320        230.00	    16.613
   6.340        221.67	    16.310
   6.360        207.50	    15.780
   6.380        215.83	    16.093
   6.400        180.00	    14.697
   6.420        211.67	    15.937
   6.440        213.33	    16.000
   6.460        198.33	    15.427
   6.480        192.50	    15.199
   6.500        175.00	    14.491
   6.520        179.17	    14.663
   6.540        194.17	    15.264
   6.560        208.33	    15.811
   6.580        185.00	    14.900
   6.600        180.83	    14.731
   6.620        193.33	    15.232
   6.640        183.33	    14.832
   6.660        184.17	    14.866
   6.680        165.83	    14.107
   6.700        179.17	    14.663
   6.720        175.83	    14.526
   6.740        167.50	    14.177
   6.760        180.00	    14.697
   6.780        196.67	    15.362
   6.800        179.17	    14.663
   6.820        187.50	    15.000
   6.840        162.50	    13.964
   6.860        185.83	    14.933
   6.880        161.67	    13.928
   6.900        150.83	    13.454
   6.920        160.83	    13.892
   6.940        191.67	    15.166
   6.960        177.50	    14.595
   6.980        174.17	    14.457
   7.000        174.17	    14.457
   7.020        162.50	    13.964
   7.040        179.17	    14.663
   7.060        179.17	    14.663
   7.080        151.67	    13.491
   7.100        183.33	    14.832
   7.120        171.67	    14.353
   7.140        171.67	    14.353
   7.160        180.83	    14.731
   7.180        152.50	    13.528
   7.200        160.83	    13.892
   7.220        142.50	    13.077
   7.240        166.67	    14.142
   7.260        152.50	    13.528
   7.280        150.83	    13.454
   7.300        168.33	    14.213
   7.320        155.00	    13.638
   7.340        185.00	    14.900
   7.360        155.83	    13.675
   7.380        171.67	    14.353
   7.400        151.67	    13.491
   7.420        151.67	    13.491
   7.440        161.67	    13.928
   7.460        150.83	    13.454
   7.480        150.83	    13.454
   7.500        146.67	    13.266
   7.520        154.17	    13.601
   7.540        160.00	    13.856
   7.560        155.83	    13.675
   7.580        160.83	    13.892
   7.600        150.00	    13.416
   7.620        169.17	    14.248
   7.640        150.00	    13.416
   7.660        161.67	    13.928
   7.680        173.33	    14.422
   7.700        140.00	    12.961
   7.720        148.33	    13.342
   7.740        164.17	    14.036
   7.760        136.67	    12.806
   7.780        154.17	    13.601
   7.800        145.00	    13.191
   7.820        154.17	    13.601
   7.840        166.67	    14.142
   7.860        144.17	    13.153
   7.880        162.50	    13.964
   7.900        153.33	    13.565
   7.920        168.33	    14.213
   7.940        161.67	    13.928
   7.960        145.00	    13.191
   7.980        138.33	    12.884
   8.000        140.00	    12.961
   8.020        145.00	    13.191
   8.040        162.50	    13.964
   8.060        143.33	    13.115
   8.080        134.17	    12.689
   8.100        155.00	    13.638
   8.120        132.50	    12.610
   8.140        169.17	    14.248
   8.160        160.00	    13.856
   8.180        160.83	    13.892
   8.200        144.17	    13.153
   8.220        158.33	    13.784
   8.240        153.33	    13.565
   8.260        150.83	    13.454
   8.280        165.83	    14.107
   8.300        154.17	    13.601
   8.320        145.83	    13.229
   8.340        154.17	    13.601
   8.360        145.83	    13.229
   8.380        145.83	    13.229
   8.400        148.33	    13.342
   8.420        161.67	    13.928
   8.440        164.17	    14.036
   8.460        139.17	    12.923
   8.480        150.83	    13.454
   8.500        160.00	    13.856
   8.520        175.83	    14.526
   8.540        168.33	    14.213
   8.560        185.83	    14.933
   8.580        164.17	    14.036
   8.600        189.17	    15.067
   8.620        178.33	    14.629
   8.640        181.67	    14.765
   8.660        194.17	    15.264
   8.680        218.33	    16.186
   8.700        230.00	    16.613
   8.720        233.33	    16.733
   8.740        260.00	    17.664
   8.760        300.00	    18.974
   8.780        335.83	    20.075
   8.800        328.33	    19.849
   8.820        390.00	    21.633
   8.840        570.83	    26.173
   8.860        724.17	    29.479
   8.880        740.00	    29.799
   8.900        650.83	    27.946
   8.920        539.17	    25.436
   8.940        383.33	    21.448
   8.960        285.83	    18.520
   8.980        213.33	    16.000
   9.000        187.50	    15.000
   9.020        183.33	    14.832
   9.040        172.50	    14.387
   9.060        138.33	    12.884
   9.080        172.50	    14.387
   9.100        173.33	    14.422
   9.120        173.33	    14.422
   9.140        190.83	    15.133
   9.160        258.33	    17.607
   9.180        300.00	    18.974
   9.200        295.83	    18.841
   9.220        207.50	    15.780
   9.240        156.67	    13.711
   9.260        150.00	    13.416
   9.280        145.00	    13.191
   9.300        135.00	    12.728
   9.320        145.83	    13.229
   9.340        140.83	    13.000
   9.360        146.67	    13.266
   9.380        169.17	    14.248
   9.400        177.50	    14.595
   9.420        183.33	    14.832
   9.440        192.50	    15.199
   9.460        193.33	    15.232
   9.480        190.00	    15.100
   9.500        211.67	    15.937
   9.520        171.67	    14.353
   9.540        141.67	    13.038
   9.560        123.33	    12.166
   9.580        118.33	    11.916
   9.600        120.83	    12.042
   9.620        126.67	    12.329
   9.640        133.33	    12.649
   9.660        135.00	    12.728
   9.680        125.00	    12.247
   9.700        125.83	    12.288
   9.720        135.83	    12.767
   9.740        134.17	    12.689
   9.760        114.17	    11.705
   9.780        125.83	    12.288
   9.800        121.67	    12.083
   9.820        125.83	    12.288
   9.840        110.00	    11.489
   9.860        114.17	    11.705
   9.880        110.00	    11.489
   9.900        121.67	    12.083
   9.920        128.33	    12.410
   9.940        100.83	    11.000
   9.960        120.00	    12.000
   9.980        108.33	    11.402
  10.000        118.33	    11.916
  10.020        120.00	    12.000
  10.040        128.33	    12.410
  10.060        121.67	    12.083
  10.080        116.67	    11.832
  10.100        112.50	    11.619
  10.120        110.00	    11.489
  10.140        103.33	    11.136
  10.160        117.50	    11.874
  10.180        127.50	    12.369
  10.200        116.67	    11.832
  10.220        109.17	    11.446
  10.240         98.33	    10.863
  10.260        104.17	    11.180
  10.280        107.50	    11.358
  10.300        117.50	    11.874
  10.320        103.33	    11.136
  10.340        101.67	    11.045
  10.360        108.33	    11.402
  10.380        120.83	    12.042
  10.400        125.83	    12.288
  10.420        111.67	    11.576
  10.440        135.00	    12.728
  10.460        128.33	    12.410
  10.480        150.83	    13.454
  10.500        177.50	    14.595
  10.520        175.83	    14.526
  10.540        185.83	    14.933
  10.560        225.00	    16.432
  10.580        204.17	    15.652
  10.600        180.83	    14.731
  10.620        134.17	    12.689
  10.640        120.00	    12.000
  10.660        107.50	    11.358
  10.680        108.33	    11.402
  10.700        110.83	    11.533
  10.720        115.00	    11.747
  10.740        106.67	    11.314
  10.760        100.00	    10.954
  10.780        123.33	    12.166
  10.800        104.17	    11.180
  10.820        111.67	    11.576
  10.840        107.50	    11.358
  10.860        108.33	    11.402
  10.880        120.83	    12.042
  10.900         86.67	    10.198
  10.920         95.83	    10.724
  10.940        110.83	    11.533
  10.960        114.17	    11.705
  10.980        115.00	    11.747
  11.000         98.33	    10.863
  11.020        112.50	    11.619
  11.040        125.00	    12.247
  11.060        110.83	    11.533
  11.080        116.67	    11.832
  11.100         88.33	    10.296
  11.120        105.00	    11.225
  11.140        103.33	    11.136
  11.160         94.17	    10.630
  11.180        109.17	    11.446
  11.200        111.67	    11.576
  11.220        100.83	    11.000
  11.240        118.33	    11.916
  11.260        112.50	    11.619
  11.280         98.33	    10.863
  11.300        117.50	    11.874
  11.320        102.50	    11.091
  11.340        105.00	    11.225
  11.360         95.00	    10.677
  11.380        116.67	    11.832
  11.400        103.33	    11.136
  11.420        105.83	    11.269
  11.440         98.33	    10.863
  11.460         90.00	    10.392
  11.480         96.67	    10.770
  11.500        115.00	    11.747
  11.520        120.83	    12.042
  11.540        107.50	    11.358
  11.560        112.50	    11.619
  11.580        115.00	    11.747
  11.600        116.67	    11.832
  11.620        126.67	    12.329
  11.640        132.50	    12.610
  11.660        119.17	    11.958
  11.680        119.17	    11.958
  11.700        104.17	    11.180
  11.720        124.17	    12.207
  11.740        120.83	    12.042
  11.760        131.67	    12.570
  11.780        116.67	    11.832
  11.800        133.33	    12.649
  11.820        107.50	    11.358
  11.840        136.67	    12.806
  11.860        108.33	    11.402
  11.880        128.33	    12.410
  11.900        129.17	    12.450
  11.920        142.50	    13.077
  11.940        129.17	    12.450
  11.960        144.17	    13.153
  11.980        163.33	    14.000
  12.000        139.17	    12.923
  12.020        185.00	    14.900
  12.040        212.50	    15.969
  12.060        195.00	    15.297
  12.080        251.67	    17.378
  12.100        302.50	    19.053
  12.120        432.50	    22.782
  12.140        670.83	    28.373
  12.160        993.33	    34.525
  12.180       1279.17	    39.179
  12.200       1235.83	    38.510
  12.220       1067.50	    35.791
  12.240        797.50	    30.935
  12.260        605.00	    26.944
  12.280        469.17	    23.728
  12.300        447.50	    23.173
  12.320        474.17	    23.854
  12.340        502.50	    24.556
  12.360        549.17	    25.671
  12.380        590.00	    26.608
  12.400        515.00	    24.860
  12.420        462.50	    23.558
  12.440        525.00	    25.100
  12.460        554.17	    25.788
  12.480        620.83	    27.295
  12.500        605.83	    26.963
  12.520        611.67	    27.092
  12.540        479.17	    23.979
  12.560        323.33	    19.698
  12.580        244.17	    17.117
  12.600        175.00	    14.491
  12.620        170.00	    14.283
  12.640        129.17	    12.450
  12.660        138.33	    12.884
  12.680        122.50	    12.124
  12.700        120.00	    12.000
  12.720        127.50	    12.369
  12.740        120.83	    12.042
  12.760        120.83	    12.042
  12.780        122.50	    12.124
  12.800        112.50	    11.619
  12.820        104.17	    11.180
  12.840        105.00	    11.225
  12.860         90.83	    10.440
  12.880        115.00	    11.747
  12.900        105.83	    11.269
  12.920        101.67	    11.045
  12.940        108.33	    11.402
  12.960        102.50	    11.091
  12.980        114.17	    11.705
  13.000         92.50	    10.536
  13.020         90.00	    10.392
  13.040         90.00	    10.392
  13.060        117.50	    11.874
  13.080        108.33	    11.402
  13.100         93.33	    10.583
  13.120         84.17	    10.050
  13.140         92.50	    10.536
  13.160         85.00	    10.100
  13.180         97.50	    10.817
  13.200        103.33	    11.136
  13.220         81.67	     9.899
  13.240         88.33	    10.296
  13.260        100.00	    10.954
  13.280         85.83	    10.149
  13.300         93.33	    10.583
  13.320        110.83	    11.533
  13.340        103.33	    11.136
  13.360        112.50	    11.619
  13.380         81.67	     9.899
  13.400        103.33	    11.136
  13.420         83.33	    10.000
  13.440        105.83	    11.269
  13.460         95.00	    10.677
  13.480         90.00	    10.392
  13.500         92.50	    10.536
  13.520         98.33	    10.863
  13.540         84.17	    10.050
  13.560         87.50	    10.247
  13.580         92.50	    10.536
  13.600         86.67	    10.198
  13.620        106.67	    11.314
  13.640        108.33	    11.402
  13.660         98.33	    10.863
  13.680        110.83	    11.533
  13.700         98.33	    10.863
  13.720         95.83	    10.724
  13.740         92.50	    10.536
  13.760         88.33	    10.296
  13.780         90.00	    10.392
  13.800         77.50	     9.644
  13.820        112.50	    11.619
  13.840        145.00	    13.191
  13.860        147.50	    13.304
  13.880        114.17	    11.705
  13.900         85.83	    10.149
  13.920         94.17	    10.630
  13.940        105.83	    11.269
  13.960         82.50	     9.950
  13.980         96.67	    10.770
  14.000         90.00	    10.392
  14.020         84.17	    10.050
  14.040         83.33	    10.000
  14.060         76.67	     9.592
  14.080         92.50	    10.536
  14.100         96.67	    10.770
  14.120         76.67	     9.592
  14.140         75.00	     9.487
  14.160         75.00	     9.487
  14.180         80.00	     9.798
  14.200         84.17	    10.050
  14.220         80.00	     9.798
  14.240         72.50	     9.327
  14.260         74.17	     9.434
  14.280         91.67	    10.488
  14.300         90.00	    10.392
  14.320         73.33	     9.381
  14.340         84.17	    10.050
  14.360         65.83	     8.888
  14.380         82.50	     9.950
  14.400         83.33	    10.000
