
Filename:
	C:\Program Files\Thermo Electron\WinXRD\Datafiles\F_HERMAN\GEO\G77_RT.raw

File Created:
	February 20, 2020 - 03:04 AM

Specimen Id:
	G77_RT

Specimen Name:
	

Specimen Description:
	

Comment:
Scan Type: 2Theta Scan
Start Angle: 3 deg.
Stop Angle: 65 deg.
Num Points: 3101
Step Size: 0.02 deg.
Scan Rate: 1.000000
Scan Mode: Continuous
Wavelength: 1.540562
\Kalpha1: 1.540562	\Kalpha2: 1.544390	\Kbeta: 1.392218

Optics:
		Detector:
			 Type: Fixed Slits
		Tube: 
			 Type: Fixed Slits


Datas:
 Pos [deg]       Rate [CPS]      ESD [-]

Range 1 ---> Iteration 1
   3.000        485.83	    24.145
   3.020        436.67	    22.891
   3.040        454.17	    23.345
   3.060        435.83	    22.869
   3.080        430.00	    22.716
   3.100        441.67	    23.022
   3.120        437.50	    22.913
   3.140        416.67	    22.361
   3.160        434.17	    22.825
   3.180        405.83	    22.068
   3.200        387.50	    21.564
   3.220        420.83	    22.472
   3.240        421.67	    22.494
   3.260        426.67	    22.627
   3.280        393.33	    21.726
   3.300        385.83	    21.517
   3.320        397.50	    21.840
   3.340        415.83	    22.338
   3.360        375.00	    21.213
   3.380        392.50	    21.703
   3.400        380.00	    21.354
   3.420        385.83	    21.517
   3.440        405.00	    22.045
   3.460        361.67	    20.833
   3.480        360.00	    20.785
   3.500        373.33	    21.166
   3.520        354.17	    20.616
   3.540        350.00	    20.494
   3.560        316.67	    19.494
   3.580        335.83	    20.075
   3.600        363.33	    20.881
   3.620        332.50	    19.975
   3.640        382.50	    21.424
   3.660        385.83	    21.517
   3.680        338.33	    20.149
   3.700        360.83	    20.809
   3.720        335.00	    20.050
   3.740        306.67	    19.183
   3.760        345.00	    20.347
   3.780        333.33	    20.000
   3.800        338.33	    20.149
   3.820        319.17	    19.570
   3.840        325.83	    19.774
   3.860        345.00	    20.347
   3.880        315.00	    19.442
   3.900        312.50	    19.365
   3.920        309.17	    19.261
   3.940        311.67	    19.339
   3.960        317.50	    19.519
   3.980        296.67	    18.868
   4.000        344.17	    20.322
   4.020        349.17	    20.469
   4.040        317.50	    19.519
   4.060        315.83	    19.468
   4.080        316.67	    19.494
   4.100        275.83	    18.193
   4.120        305.83	    19.157
   4.140        322.50	    19.672
   4.160        290.83	    18.682
   4.180        308.33	    19.235
   4.200        286.67	    18.547
   4.220        290.83	    18.682
   4.240        318.33	    19.545
   4.260        296.67	    18.868
   4.280        275.00	    18.166
   4.300        300.00	    18.974
   4.320        281.67	    18.385
   4.340        268.33	    17.944
   4.360        274.17	    18.138
   4.380        279.17	    18.303
   4.400        278.33	    18.276
   4.420        290.83	    18.682
   4.440        285.00	    18.493
   4.460        292.50	    18.735
   4.480        275.00	    18.166
   4.500        268.33	    17.944
   4.520        265.83	    17.861
   4.540        276.67	    18.221
   4.560        274.17	    18.138
   4.580        268.33	    17.944
   4.600        289.17	    18.628
   4.620        280.00	    18.330
   4.640        263.33	    17.776
   4.660        260.83	    17.692
   4.680        275.00	    18.166
   4.700        253.33	    17.436
   4.720        269.17	    17.972
   4.740        268.33	    17.944
   4.760        253.33	    17.436
   4.780        247.50	    17.234
   4.800        254.17	    17.464
   4.820        238.33	    16.912
   4.840        254.17	    17.464
   4.860        254.17	    17.464
   4.880        240.83	    17.000
   4.900        255.83	    17.521
   4.920        239.17	    16.941
   4.940        244.17	    17.117
   4.960        238.33	    16.912
   4.980        244.17	    17.117
   5.000        216.67	    16.125
   5.020        243.33	    17.088
   5.040        247.50	    17.234
   5.060        253.33	    17.436
   5.080        217.50	    16.155
   5.100        211.67	    15.937
   5.120        245.83	    17.176
   5.140        249.17	    17.292
   5.160        228.33	    16.553
   5.180        217.50	    16.155
   5.200        240.83	    17.000
   5.220        225.83	    16.462
   5.240        199.17	    15.460
   5.260        232.50	    16.703
   5.280        245.00	    17.146
   5.300        240.83	    17.000
   5.320        235.83	    16.823
   5.340        233.33	    16.733
   5.360        224.17	    16.401
   5.380        211.67	    15.937
   5.400        224.17	    16.401
   5.420        241.67	    17.029
   5.440        218.33	    16.186
   5.460        218.33	    16.186
   5.480        216.67	    16.125
   5.500        208.33	    15.811
   5.520        212.50	    15.969
   5.540        205.00	    15.684
   5.560        210.83	    15.906
   5.580        209.17	    15.843
   5.600        245.83	    17.176
   5.620        221.67	    16.310
   5.640        210.00	    15.875
   5.660        234.17	    16.763
   5.680        229.17	    16.583
   5.700        220.00	    16.248
   5.720        201.67	    15.556
   5.740        236.67	    16.852
   5.760        205.83	    15.716
   5.780        199.17	    15.460
   5.800        195.83	    15.330
   5.820        236.67	    16.852
   5.840        197.50	    15.395
   5.860        213.33	    16.000
   5.880        200.83	    15.524
   5.900        225.00	    16.432
   5.920        205.00	    15.684
   5.940        205.00	    15.684
   5.960        260.83	    17.692
   5.980        225.00	    16.432
   6.000        230.00	    16.613
   6.020        242.50	    17.059
   6.040        235.83	    16.823
   6.060        217.50	    16.155
   6.080        265.83	    17.861
   6.100        245.00	    17.146
   6.120        266.67	    17.889
   6.140        251.67	    17.378
   6.160        278.33	    18.276
   6.180        264.17	    17.804
   6.200        225.83	    16.462
   6.220        213.33	    16.000
   6.240        206.67	    15.748
   6.260        190.83	    15.133
   6.280        197.50	    15.395
   6.300        193.33	    15.232
   6.320        197.50	    15.395
   6.340        198.33	    15.427
   6.360        220.83	    16.279
   6.380        176.67	    14.560
   6.400        187.50	    15.000
   6.420        184.17	    14.866
   6.440        175.00	    14.491
   6.460        181.67	    14.765
   6.480        167.50	    14.177
   6.500        190.83	    15.133
   6.520        190.00	    15.100
   6.540        189.17	    15.067
   6.560        188.33	    15.033
   6.580        185.00	    14.900
   6.600        176.67	    14.560
   6.620        175.83	    14.526
   6.640        185.00	    14.900
   6.660        165.00	    14.071
   6.680        175.00	    14.491
   6.700        170.83	    14.318
   6.720        179.17	    14.663
   6.740        175.83	    14.526
   6.760        162.50	    13.964
   6.780        170.00	    14.283
   6.800        180.83	    14.731
   6.820        180.83	    14.731
   6.840        169.17	    14.248
   6.860        178.33	    14.629
   6.880        188.33	    15.033
   6.900        180.00	    14.697
   6.920        173.33	    14.422
   6.940        182.50	    14.799
   6.960        166.67	    14.142
   6.980        183.33	    14.832
   7.000        156.67	    13.711
   7.020        177.50	    14.595
   7.040        151.67	    13.491
   7.060        158.33	    13.784
   7.080        163.33	    14.000
   7.100        172.50	    14.387
   7.120        145.83	    13.229
   7.140        171.67	    14.353
   7.160        182.50	    14.799
   7.180        174.17	    14.457
   7.200        155.00	    13.638
   7.220        175.83	    14.526
   7.240        139.17	    12.923
   7.260        172.50	    14.387
   7.280        155.83	    13.675
   7.300        143.33	    13.115
   7.320        163.33	    14.000
   7.340        159.17	    13.820
   7.360        166.67	    14.142
   7.380        171.67	    14.353
   7.400        144.17	    13.153
   7.420        141.67	    13.038
   7.440        140.83	    13.000
   7.460        153.33	    13.565
   7.480        155.00	    13.638
   7.500        162.50	    13.964
   7.520        157.50	    13.748
   7.540        150.83	    13.454
   7.560        155.83	    13.675
   7.580        140.00	    12.961
   7.600        154.17	    13.601
   7.620        157.50	    13.748
   7.640        155.00	    13.638
   7.660        145.00	    13.191
   7.680        150.83	    13.454
   7.700        154.17	    13.601
   7.720        151.67	    13.491
   7.740        136.67	    12.806
   7.760        156.67	    13.711
   7.780        146.67	    13.266
   7.800        140.00	    12.961
   7.820        144.17	    13.153
   7.840        151.67	    13.491
   7.860        150.00	    13.416
   7.880        160.83	    13.892
   7.900        149.17	    13.379
   7.920        154.17	    13.601
   7.940        158.33	    13.784
   7.960        135.00	    12.728
   7.980        144.17	    13.153
   8.000        138.33	    12.884
   8.020        135.83	    12.767
   8.040        128.33	    12.410
   8.060        144.17	    13.153
   8.080        123.33	    12.166
   8.100        150.83	    13.454
   8.120        135.83	    12.767
   8.140        155.83	    13.675
   8.160        126.67	    12.329
   8.180        138.33	    12.884
   8.200        134.17	    12.689
   8.220        152.50	    13.528
   8.240        151.67	    13.491
   8.260        145.00	    13.191
   8.280        155.83	    13.675
   8.300        165.83	    14.107
   8.320        146.67	    13.266
   8.340        148.33	    13.342
   8.360        159.17	    13.820
   8.380        140.00	    12.961
   8.400        148.33	    13.342
   8.420        156.67	    13.711
   8.440        157.50	    13.748
   8.460        130.00	    12.490
   8.480        162.50	    13.964
   8.500        165.83	    14.107
   8.520        149.17	    13.379
   8.540        173.33	    14.422
   8.560        174.17	    14.457
   8.580        195.00	    15.297
   8.600        207.50	    15.780
   8.620        233.33	    16.733
   8.640        253.33	    17.436
   8.660        311.67	    19.339
   8.680        310.00	    19.287
   8.700        334.17	    20.025
   8.720        335.83	    20.075
   8.740        361.67	    20.833
   8.760        409.17	    22.159
   8.780        545.00	    25.573
   8.800        617.50	    27.221
   8.820        500.83	    24.515
   8.840        305.83	    19.157
   8.860        209.17	    15.843
   8.880        162.50	    13.964
   8.900        154.17	    13.601
   8.920        141.67	    13.038
   8.940        149.17	    13.379
   8.960        128.33	    12.410
   8.980        140.00	    12.961
   9.000        154.17	    13.601
   9.020        145.00	    13.191
   9.040        150.83	    13.454
   9.060        165.00	    14.071
   9.080        146.67	    13.266
   9.100        150.83	    13.454
   9.120        150.00	    13.416
   9.140        129.17	    12.450
   9.160        125.00	    12.247
   9.180        123.33	    12.166
   9.200        115.83	    11.790
   9.220        118.33	    11.916
   9.240        134.17	    12.689
   9.260        120.83	    12.042
   9.280        139.17	    12.923
   9.300        135.00	    12.728
   9.320        118.33	    11.916
   9.340        135.83	    12.767
   9.360        131.67	    12.570
   9.380        123.33	    12.166
   9.400        132.50	    12.610
   9.420        149.17	    13.379
   9.440        101.67	    11.045
   9.460        116.67	    11.832
   9.480        123.33	    12.166
   9.500        127.50	    12.369
   9.520        119.17	    11.958
   9.540        122.50	    12.124
   9.560        105.83	    11.269
   9.580        115.00	    11.747
   9.600        116.67	    11.832
   9.620        110.83	    11.533
   9.640        110.00	    11.489
   9.660        111.67	    11.576
   9.680        116.67	    11.832
   9.700        126.67	    12.329
   9.720        100.83	    11.000
   9.740        114.17	    11.705
   9.760        106.67	    11.314
   9.780        110.83	    11.533
   9.800        107.50	    11.358
   9.820        110.83	    11.533
   9.840        110.83	    11.533
   9.860        107.50	    11.358
   9.880         98.33	    10.863
   9.900        118.33	    11.916
   9.920        122.50	    12.124
   9.940        110.00	    11.489
   9.960         99.17	    10.909
   9.980         96.67	    10.770
  10.000         88.33	    10.296
  10.020        109.17	    11.446
  10.040        113.33	    11.662
  10.060         96.67	    10.770
  10.080        100.00	    10.954
  10.100        123.33	    12.166
  10.120        103.33	    11.136
  10.140        100.00	    10.954
  10.160         99.17	    10.909
  10.180        116.67	    11.832
  10.200        109.17	    11.446
  10.220        100.00	    10.954
  10.240        103.33	    11.136
  10.260        102.50	    11.091
  10.280        105.83	    11.269
  10.300        110.83	    11.533
  10.320        125.00	    12.247
  10.340        113.33	    11.662
  10.360        118.33	    11.916
  10.380        127.50	    12.369
  10.400        127.50	    12.369
  10.420        135.83	    12.767
  10.440        174.17	    14.457
  10.460        139.17	    12.923
  10.480        113.33	    11.662
  10.500        110.83	    11.533
  10.520         90.83	    10.440
  10.540        115.00	    11.747
  10.560        100.00	    10.954
  10.580        123.33	    12.166
  10.600         95.00	    10.677
  10.620         98.33	    10.863
  10.640         99.17	    10.909
  10.660         97.50	    10.817
  10.680         99.17	    10.909
  10.700        100.83	    11.000
  10.720        100.00	    10.954
  10.740        107.50	    11.358
  10.760        100.00	    10.954
  10.780         94.17	    10.630
  10.800         85.00	    10.100
  10.820         90.83	    10.440
  10.840        108.33	    11.402
  10.860        101.67	    11.045
  10.880         94.17	    10.630
  10.900        108.33	    11.402
  10.920        101.67	    11.045
  10.940         94.17	    10.630
  10.960         99.17	    10.909
  10.980         99.17	    10.909
  11.000        108.33	    11.402
  11.020        110.83	    11.533
  11.040        100.83	    11.000
  11.060        107.50	    11.358
  11.080         96.67	    10.770
  11.100         90.00	    10.392
  11.120         90.83	    10.440
  11.140         85.00	    10.100
  11.160         86.67	    10.198
  11.180         91.67	    10.488
  11.200        103.33	    11.136
  11.220        101.67	    11.045
  11.240         83.33	    10.000
  11.260         82.50	     9.950
  11.280        110.83	    11.533
  11.300         95.83	    10.724
  11.320         93.33	    10.583
  11.340         91.67	    10.488
  11.360         94.17	    10.630
  11.380         94.17	    10.630
  11.400        107.50	    11.358
  11.420         93.33	    10.583
  11.440        100.00	    10.954
  11.460         95.00	    10.677
  11.480        102.50	    11.091
  11.500         86.67	    10.198
  11.520         90.00	    10.392
  11.540        111.67	    11.576
  11.560        106.67	    11.314
  11.580         85.00	    10.100
  11.600         87.50	    10.247
  11.620        101.67	    11.045
  11.640        105.00	    11.225
  11.660         98.33	    10.863
  11.680         90.00	    10.392
  11.700         87.50	    10.247
  11.720         90.83	    10.440
  11.740        103.33	    11.136
  11.760         80.00	     9.798
  11.780         90.83	    10.440
  11.800         93.33	    10.583
  11.820         95.83	    10.724
  11.840        108.33	    11.402
  11.860        103.33	    11.136
  11.880        111.67	    11.576
  11.900        107.50	    11.358
  11.920        123.33	    12.166
  11.940        113.33	    11.662
  11.960        105.83	    11.269
  11.980        130.83	    12.530
  12.000        131.67	    12.570
  12.020        150.83	    13.454
  12.040        201.67	    15.556
  12.060        290.00	    18.655
  12.080        426.67	    22.627
  12.100        530.00	    25.219
  12.120        494.17	    24.352
  12.140        345.00	    20.347
  12.160        228.33	    16.553
  12.180        187.50	    15.000
  12.200        179.17	    14.663
  12.220        175.83	    14.526
  12.240        173.33	    14.422
  12.260        176.67	    14.560
  12.280        172.50	    14.387
  12.300        178.33	    14.629
  12.320        161.67	    13.928
  12.340        181.67	    14.765
  12.360        191.67	    15.166
  12.380        222.50	    16.340
  12.400        249.17	    17.292
  12.420        250.00	    17.321
  12.440        224.17	    16.401
  12.460        153.33	    13.565
  12.480        122.50	    12.124
  12.500        103.33	    11.136
  12.520        102.50	    11.091
  12.540         90.83	    10.440
  12.560         90.83	    10.440
  12.580         98.33	    10.863
  12.600         95.83	    10.724
  12.620         83.33	    10.000
  12.640         96.67	    10.770
  12.660         78.33	     9.695
  12.680         89.17	    10.344
  12.700         85.83	    10.149
  12.720         90.00	    10.392
  12.740         84.17	    10.050
  12.760         65.00	     8.832
  12.780         80.00	     9.798
  12.800         90.00	    10.392
  12.820         99.17	    10.909
  12.840         60.83	     8.544
  12.860         78.33	     9.695
  12.880         85.00	    10.100
  12.900         82.50	     9.950
  12.920         80.00	     9.798
  12.940         64.17	     8.775
  12.960         73.33	     9.381
  12.980         92.50	    10.536
  13.000         88.33	    10.296
  13.020        103.33	    11.136
  13.040         80.83	     9.849
  13.060         82.50	     9.950
  13.080         86.67	    10.198
  13.100         88.33	    10.296
  13.120         88.33	    10.296
  13.140         72.50	     9.327
  13.160         62.50	     8.660
  13.180         70.00	     9.165
  13.200         75.00	     9.487
  13.220         76.67	     9.592
  13.240         72.50	     9.327
  13.260         87.50	    10.247
  13.280         75.83	     9.539
  13.300         90.00	    10.392
  13.320         89.17	    10.344
  13.340         61.67	     8.602
  13.360         86.67	    10.198
  13.380        103.33	    11.136
  13.400         85.00	    10.100
  13.420         75.00	     9.487
  13.440         75.83	     9.539
  13.460         75.00	     9.487
  13.480         77.50	     9.644
  13.500         71.67	     9.274
  13.520         70.00	     9.165
  13.540         80.83	     9.849
  13.560         83.33	    10.000
  13.580         82.50	     9.950
  13.600         85.00	    10.100
  13.620         83.33	    10.000
  13.640         82.50	     9.950
  13.660         60.83	     8.544
  13.680         69.17	     9.110
  13.700         78.33	     9.695
  13.720         76.67	     9.592
  13.740        104.17	    11.180
  13.760        127.50	    12.369
  13.780        127.50	    12.369
  13.800        111.67	    11.576
  13.820        105.83	    11.269
  13.840         81.67	     9.899
  13.860         67.50	     9.000
  13.880         98.33	    10.863
  13.900         66.67	     8.944
  13.920         80.83	     9.849
  13.940         73.33	     9.381
  13.960         71.67	     9.274
  13.980         79.17	     9.747
  14.000         78.33	     9.695
  14.020         65.83	     8.888
  14.040         73.33	     9.381
  14.060         65.00	     8.832
  14.080         72.50	     9.327
  14.100         52.50	     7.937
  14.120         65.00	     8.832
  14.140         77.50	     9.644
  14.160         70.00	     9.165
  14.180         70.83	     9.220
  14.200         87.50	    10.247
  14.220         76.67	     9.592
  14.240         65.00	     8.832
  14.260         71.67	     9.274
  14.280         70.83	     9.220
  14.300         75.83	     9.539
  14.320         67.50	     9.000
  14.340         76.67	     9.592
  14.360         62.50	     8.660
  14.380         71.67	     9.274
  14.400         64.17	     8.775
