
Filename:
	C:\Program Files\Thermo Electron\WinXRD\Datafiles\F_HERMAN\GEO\G78_RT.raw

File Created:
	February 20, 2020 - 04:06 AM

Specimen Id:
	G78_RT

Specimen Name:
	

Specimen Description:
	

Comment:
Scan Type: 2Theta Scan
Start Angle: 3 deg.
Stop Angle: 65 deg.
Num Points: 3101
Step Size: 0.02 deg.
Scan Rate: 1.000000
Scan Mode: Continuous
Wavelength: 1.540562
\Kalpha1: 1.540562	\Kalpha2: 1.544390	\Kbeta: 1.392218

Optics:
		Detector:
			 Type: Fixed Slits
		Tube: 
			 Type: Fixed Slits


Datas:
 Pos [deg]       Rate [CPS]      ESD [-]

Range 1 ---> Iteration 1
   3.000        450.83	    23.259
   3.020        455.00	    23.367
   3.040        415.00	    22.316
   3.060        448.33	    23.195
   3.080        458.33	    23.452
   3.100        457.50	    23.431
   3.120        407.50	    22.113
   3.140        424.17	    22.561
   3.160        428.33	    22.672
   3.180        440.00	    22.978
   3.200        407.50	    22.113
   3.220        441.67	    23.022
   3.240        412.50	    22.249
   3.260        413.33	    22.271
   3.280        391.67	    21.679
   3.300        405.00	    22.045
   3.320        430.00	    22.716
   3.340        416.67	    22.361
   3.360        389.17	    21.610
   3.380        417.50	    22.383
   3.400        390.00	    21.633
   3.420        388.33	    21.587
   3.440        393.33	    21.726
   3.460        349.17	    20.469
   3.480        378.33	    21.307
   3.500        407.50	    22.113
   3.520        389.17	    21.610
   3.540        362.50	    20.857
   3.560        387.50	    21.564
   3.580        376.67	    21.260
   3.600        343.33	    20.298
   3.620        364.17	    20.905
   3.640        338.33	    20.149
   3.660        363.33	    20.881
   3.680        362.50	    20.857
   3.700        338.33	    20.149
   3.720        351.67	    20.543
   3.740        368.33	    21.024
   3.760        356.67	    20.688
   3.780        363.33	    20.881
   3.800        348.33	    20.445
   3.820        345.83	    20.372
   3.840        333.33	    20.000
   3.860        349.17	    20.469
   3.880        339.17	    20.174
   3.900        336.67	    20.100
   3.920        345.00	    20.347
   3.940        320.00	    19.596
   3.960        291.67	    18.708
   3.980        324.17	    19.723
   4.000        309.17	    19.261
   4.020        306.67	    19.183
   4.040        332.50	    19.975
   4.060        313.33	    19.391
   4.080        308.33	    19.235
   4.100        324.17	    19.723
   4.120        318.33	    19.545
   4.140        313.33	    19.391
   4.160        326.67	    19.799
   4.180        308.33	    19.235
   4.200        312.50	    19.365
   4.220        285.83	    18.520
   4.240        299.17	    18.947
   4.260        294.17	    18.788
   4.280        271.67	    18.055
   4.300        287.50	    18.574
   4.320        320.00	    19.596
   4.340        255.83	    17.521
   4.360        298.33	    18.921
   4.380        270.00	    18.000
   4.400        261.67	    17.720
   4.420        269.17	    17.972
   4.440        275.83	    18.193
   4.460        293.33	    18.762
   4.480        277.50	    18.248
   4.500        289.17	    18.628
   4.520        295.00	    18.815
   4.540        275.00	    18.166
   4.560        268.33	    17.944
   4.580        288.33	    18.601
   4.600        310.83	    19.313
   4.620        282.50	    18.412
   4.640        263.33	    17.776
   4.660        275.83	    18.193
   4.680        268.33	    17.944
   4.700        281.67	    18.385
   4.720        267.50	    17.916
   4.740        255.00	    17.493
   4.760        290.83	    18.682
   4.780        268.33	    17.944
   4.800        256.67	    17.550
   4.820        244.17	    17.117
   4.840        275.00	    18.166
   4.860        280.83	    18.358
   4.880        250.00	    17.321
   4.900        240.83	    17.000
   4.920        238.33	    16.912
   4.940        249.17	    17.292
   4.960        256.67	    17.550
   4.980        251.67	    17.378
   5.000        245.83	    17.176
   5.020        244.17	    17.117
   5.040        213.33	    16.000
   5.060        250.00	    17.321
   5.080        235.00	    16.793
   5.100        270.00	    18.000
   5.120        227.50	    16.523
   5.140        255.00	    17.493
   5.160        245.83	    17.176
   5.180        251.67	    17.378
   5.200        253.33	    17.436
   5.220        241.67	    17.029
   5.240        230.83	    16.643
   5.260        237.50	    16.882
   5.280        214.17	    16.031
   5.300        214.17	    16.031
   5.320        220.83	    16.279
   5.340        240.83	    17.000
   5.360        200.00	    15.492
   5.380        224.17	    16.401
   5.400        244.17	    17.117
   5.420        238.33	    16.912
   5.440        245.83	    17.176
   5.460        204.17	    15.652
   5.480        233.33	    16.733
   5.500        209.17	    15.843
   5.520        193.33	    15.232
   5.540        209.17	    15.843
   5.560        244.17	    17.117
   5.580        227.50	    16.523
   5.600        228.33	    16.553
   5.620        220.00	    16.248
   5.640        252.50	    17.407
   5.660        203.33	    15.620
   5.680        228.33	    16.553
   5.700        211.67	    15.937
   5.720        218.33	    16.186
   5.740        195.00	    15.297
   5.760        215.00	    16.062
   5.780        222.50	    16.340
   5.800        212.50	    15.969
   5.820        207.50	    15.780
   5.840        215.00	    16.062
   5.860        208.33	    15.811
   5.880        225.83	    16.462
   5.900        213.33	    16.000
   5.920        214.17	    16.031
   5.940        188.33	    15.033
   5.960        205.83	    15.716
   5.980        213.33	    16.000
   6.000        212.50	    15.969
   6.020        197.50	    15.395
   6.040        225.00	    16.432
   6.060        217.50	    16.155
   6.080        200.83	    15.524
   6.100        214.17	    16.031
   6.120        228.33	    16.553
   6.140        233.33	    16.733
   6.160        206.67	    15.748
   6.180        184.17	    14.866
   6.200        200.00	    15.492
   6.220        166.67	    14.142
   6.240        196.67	    15.362
   6.260        191.67	    15.166
   6.280        200.83	    15.524
   6.300        205.00	    15.684
   6.320        212.50	    15.969
   6.340        203.33	    15.620
   6.360        205.83	    15.716
   6.380        194.17	    15.264
   6.400        201.67	    15.556
   6.420        180.00	    14.697
   6.440        173.33	    14.422
   6.460        187.50	    15.000
   6.480        202.50	    15.588
   6.500        180.00	    14.697
   6.520        205.83	    15.716
   6.540        193.33	    15.232
   6.560        192.50	    15.199
   6.580        190.00	    15.100
   6.600        212.50	    15.969
   6.620        185.00	    14.900
   6.640        190.00	    15.100
   6.660        176.67	    14.560
   6.680        176.67	    14.560
   6.700        174.17	    14.457
   6.720        177.50	    14.595
   6.740        174.17	    14.457
   6.760        183.33	    14.832
   6.780        172.50	    14.387
   6.800        179.17	    14.663
   6.820        180.83	    14.731
   6.840        146.67	    13.266
   6.860        183.33	    14.832
   6.880        176.67	    14.560
   6.900        190.83	    15.133
   6.920        157.50	    13.748
   6.940        172.50	    14.387
   6.960        191.67	    15.166
   6.980        163.33	    14.000
   7.000        179.17	    14.663
   7.020        169.17	    14.248
   7.040        167.50	    14.177
   7.060        170.00	    14.283
   7.080        154.17	    13.601
   7.100        180.00	    14.697
   7.120        159.17	    13.820
   7.140        165.83	    14.107
   7.160        184.17	    14.866
   7.180        154.17	    13.601
   7.200        159.17	    13.820
   7.220        160.83	    13.892
   7.240        160.00	    13.856
   7.260        176.67	    14.560
   7.280        194.17	    15.264
   7.300        149.17	    13.379
   7.320        163.33	    14.000
   7.340        136.67	    12.806
   7.360        169.17	    14.248
   7.380        150.83	    13.454
   7.400        153.33	    13.565
   7.420        162.50	    13.964
   7.440        163.33	    14.000
   7.460        139.17	    12.923
   7.480        179.17	    14.663
   7.500        150.83	    13.454
   7.520        152.50	    13.528
   7.540        145.00	    13.191
   7.560        135.00	    12.728
   7.580        157.50	    13.748
   7.600        141.67	    13.038
   7.620        146.67	    13.266
   7.640        142.50	    13.077
   7.660        157.50	    13.748
   7.680        145.83	    13.229
   7.700        150.00	    13.416
   7.720        165.00	    14.071
   7.740        150.83	    13.454
   7.760        143.33	    13.115
   7.780        130.00	    12.490
   7.800        169.17	    14.248
   7.820        148.33	    13.342
   7.840        144.17	    13.153
   7.860        144.17	    13.153
   7.880        149.17	    13.379
   7.900        125.83	    12.288
   7.920        144.17	    13.153
   7.940        137.50	    12.845
   7.960        159.17	    13.820
   7.980        134.17	    12.689
   8.000        140.83	    13.000
   8.020        141.67	    13.038
   8.040        157.50	    13.748
   8.060        126.67	    12.329
   8.080        150.00	    13.416
   8.100        144.17	    13.153
   8.120        136.67	    12.806
   8.140        110.00	    11.489
   8.160        146.67	    13.266
   8.180        157.50	    13.748
   8.200        130.83	    12.530
   8.220        159.17	    13.820
   8.240        146.67	    13.266
   8.260        154.17	    13.601
   8.280        137.50	    12.845
   8.300        134.17	    12.689
   8.320        149.17	    13.379
   8.340        138.33	    12.884
   8.360        151.67	    13.491
   8.380        175.00	    14.491
   8.400        132.50	    12.610
   8.420        153.33	    13.565
   8.440        140.00	    12.961
   8.460        150.00	    13.416
   8.480        165.83	    14.107
   8.500        138.33	    12.884
   8.520        128.33	    12.410
   8.540        178.33	    14.629
   8.560        183.33	    14.832
   8.580        165.83	    14.107
   8.600        163.33	    14.000
   8.620        185.00	    14.900
   8.640        198.33	    15.427
   8.660        182.50	    14.799
   8.680        200.00	    15.492
   8.700        225.00	    16.432
   8.720        235.83	    16.823
   8.740        277.50	    18.248
   8.760        291.67	    18.708
   8.780        265.00	    17.833
   8.800        179.17	    14.663
   8.820        152.50	    13.528
   8.840        146.67	    13.266
   8.860        175.83	    14.526
   8.880        135.00	    12.728
   8.900        130.00	    12.490
   8.920        165.83	    14.107
   8.940        150.00	    13.416
   8.960        139.17	    12.923
   8.980        150.00	    13.416
   9.000        138.33	    12.884
   9.020        129.17	    12.450
   9.040        155.00	    13.638
   9.060        122.50	    12.124
   9.080        122.50	    12.124
   9.100        155.00	    13.638
   9.120        113.33	    11.662
   9.140        121.67	    12.083
   9.160        133.33	    12.649
   9.180        136.67	    12.806
   9.200        136.67	    12.806
   9.220        142.50	    13.077
   9.240        127.50	    12.369
   9.260        120.00	    12.000
   9.280        129.17	    12.450
   9.300        146.67	    13.266
   9.320        124.17	    12.207
   9.340        117.50	    11.874
   9.360        146.67	    13.266
   9.380        124.17	    12.207
   9.400        125.00	    12.247
   9.420        121.67	    12.083
   9.440        108.33	    11.402
   9.460        113.33	    11.662
   9.480        119.17	    11.958
   9.500        135.00	    12.728
   9.520        100.00	    10.954
   9.540        119.17	    11.958
   9.560        102.50	    11.091
   9.580        110.00	    11.489
   9.600        102.50	    11.091
   9.620        116.67	    11.832
   9.640        113.33	    11.662
   9.660        123.33	    12.166
   9.680        115.00	    11.747
   9.700        116.67	    11.832
   9.720        106.67	    11.314
   9.740        129.17	    12.450
   9.760        117.50	    11.874
   9.780        102.50	    11.091
   9.800        119.17	    11.958
   9.820        110.83	    11.533
   9.840        104.17	    11.180
   9.860        106.67	    11.314
   9.880        102.50	    11.091
   9.900        120.83	    12.042
   9.920        123.33	    12.166
   9.940        126.67	    12.329
   9.960        123.33	    12.166
   9.980        111.67	    11.576
  10.000        101.67	    11.045
  10.020        102.50	    11.091
  10.040        118.33	    11.916
  10.060         84.17	    10.050
  10.080        108.33	    11.402
  10.100        107.50	    11.358
  10.120        117.50	    11.874
  10.140        100.83	    11.000
  10.160        106.67	    11.314
  10.180        120.83	    12.042
  10.200        114.17	    11.705
  10.220        111.67	    11.576
  10.240        124.17	    12.207
  10.260        119.17	    11.958
  10.280        133.33	    12.649
  10.300        135.83	    12.767
  10.320        120.00	    12.000
  10.340        120.83	    12.042
  10.360        100.00	    10.954
  10.380        129.17	    12.450
  10.400        141.67	    13.038
  10.420        153.33	    13.565
  10.440        156.67	    13.711
  10.460        145.00	    13.191
  10.480        127.50	    12.369
  10.500        106.67	    11.314
  10.520        101.67	    11.045
  10.540         88.33	    10.296
  10.560        105.83	    11.269
  10.580         97.50	    10.817
  10.600        111.67	    11.576
  10.620        110.83	    11.533
  10.640        100.83	    11.000
  10.660        122.50	    12.124
  10.680        100.83	    11.000
  10.700        111.67	    11.576
  10.720        110.83	    11.533
  10.740        114.17	    11.705
  10.760         91.67	    10.488
  10.780        110.00	    11.489
  10.800         95.00	    10.677
  10.820         95.83	    10.724
  10.840        106.67	    11.314
  10.860        110.83	    11.533
  10.880        106.67	    11.314
  10.900         98.33	    10.863
  10.920        100.83	    11.000
  10.940        108.33	    11.402
  10.960        103.33	    11.136
  10.980        118.33	    11.916
  11.000         96.67	    10.770
  11.020         96.67	    10.770
  11.040        105.83	    11.269
  11.060        114.17	    11.705
  11.080         93.33	    10.583
  11.100         96.67	    10.770
  11.120        111.67	    11.576
  11.140         90.83	    10.440
  11.160        102.50	    11.091
  11.180         85.83	    10.149
  11.200         94.17	    10.630
  11.220        100.83	    11.000
  11.240         97.50	    10.817
  11.260         86.67	    10.198
  11.280         84.17	    10.050
  11.300         94.17	    10.630
  11.320         92.50	    10.536
  11.340        102.50	    11.091
  11.360         75.83	     9.539
  11.380         91.67	    10.488
  11.400        104.17	    11.180
  11.420         89.17	    10.344
  11.440         97.50	    10.817
  11.460        115.00	    11.747
  11.480         84.17	    10.050
  11.500         95.00	    10.677
  11.520         86.67	    10.198
  11.540        100.83	    11.000
  11.560        104.17	    11.180
  11.580         99.17	    10.909
  11.600         91.67	    10.488
  11.620        108.33	    11.402
  11.640        100.00	    10.954
  11.660         94.17	    10.630
  11.680         98.33	    10.863
  11.700         99.17	    10.909
  11.720        106.67	    11.314
  11.740         97.50	    10.817
  11.760         96.67	    10.770
  11.780        100.83	    11.000
  11.800         83.33	    10.000
  11.820         87.50	    10.247
  11.840        103.33	    11.136
  11.860         88.33	    10.296
  11.880         86.67	    10.198
  11.900         84.17	    10.050
  11.920        105.00	    11.225
  11.940         84.17	    10.050
  11.960        118.33	    11.916
  11.980        119.17	    11.958
  12.000        155.00	    13.638
  12.020        149.17	    13.379
  12.040        151.67	    13.491
  12.060        180.00	    14.697
  12.080        208.33	    15.811
  12.100        162.50	    13.964
  12.120        136.67	    12.806
  12.140        108.33	    11.402
  12.160        115.83	    11.790
  12.180        105.83	    11.269
  12.200        116.67	    11.832
  12.220        130.00	    12.490
  12.240        128.33	    12.410
  12.260        130.00	    12.490
  12.280        140.00	    12.961
  12.300        135.00	    12.728
  12.320        129.17	    12.450
  12.340        126.67	    12.329
  12.360        180.83	    14.731
  12.380        161.67	    13.928
  12.400        155.83	    13.675
  12.420        123.33	    12.166
  12.440        105.00	    11.225
  12.460        102.50	    11.091
  12.480         93.33	    10.583
  12.500         91.67	    10.488
  12.520        101.67	    11.045
  12.540        104.17	    11.180
  12.560         71.67	     9.274
  12.580         98.33	    10.863
  12.600         95.00	    10.677
  12.620         94.17	    10.630
  12.640         87.50	    10.247
  12.660        101.67	    11.045
  12.680         84.17	    10.050
  12.700         90.83	    10.440
  12.720         95.83	    10.724
  12.740         83.33	    10.000
  12.760         86.67	    10.198
  12.780         87.50	    10.247
  12.800         77.50	     9.644
  12.820         97.50	    10.817
  12.840         81.67	     9.899
  12.860         69.17	     9.110
  12.880         85.83	    10.149
  12.900         78.33	     9.695
  12.920         96.67	    10.770
  12.940         76.67	     9.592
  12.960         83.33	    10.000
  12.980         66.67	     8.944
  13.000         93.33	    10.583
  13.020         74.17	     9.434
  13.040         95.83	    10.724
  13.060         83.33	    10.000
  13.080         85.00	    10.100
  13.100         76.67	     9.592
  13.120         83.33	    10.000
  13.140         85.83	    10.149
  13.160        105.00	    11.225
  13.180         84.17	    10.050
  13.200         79.17	     9.747
  13.220         89.17	    10.344
  13.240         95.83	    10.724
  13.260        100.83	    11.000
  13.280         86.67	    10.198
  13.300         77.50	     9.644
  13.320         75.83	     9.539
  13.340        105.00	    11.225
  13.360         76.67	     9.592
  13.380         76.67	     9.592
  13.400         67.50	     9.000
  13.420         75.83	     9.539
  13.440         82.50	     9.950
  13.460         73.33	     9.381
  13.480         92.50	    10.536
  13.500         80.00	     9.798
  13.520         76.67	     9.592
  13.540         81.67	     9.899
  13.560         80.83	     9.849
  13.580         75.00	     9.487
  13.600         87.50	    10.247
  13.620         70.83	     9.220
  13.640         84.17	    10.050
  13.660         79.17	     9.747
  13.680         75.00	     9.487
  13.700         79.17	     9.747
  13.720        100.83	    11.000
  13.740        105.83	    11.269
  13.760         84.17	    10.050
  13.780         87.50	    10.247
  13.800         91.67	    10.488
  13.820         90.00	    10.392
  13.840         74.17	     9.434
  13.860         85.83	    10.149
  13.880         86.67	    10.198
  13.900         72.50	     9.327
  13.920         80.00	     9.798
  13.940         87.50	    10.247
  13.960         67.50	     9.000
  13.980         84.17	    10.050
  14.000         73.33	     9.381
  14.020         70.83	     9.220
  14.040         60.83	     8.544
  14.060         80.83	     9.849
  14.080         85.83	    10.149
  14.100         69.17	     9.110
  14.120         60.83	     8.544
  14.140         86.67	    10.198
  14.160         80.83	     9.849
  14.180         79.17	     9.747
  14.200         61.67	     8.602
  14.220         85.00	    10.100
  14.240         74.17	     9.434
  14.260         88.33	    10.296
  14.280         65.83	     8.888
  14.300         79.17	     9.747
  14.320         75.00	     9.487
  14.340         75.00	     9.487
  14.360         65.00	     8.832
  14.380         78.33	     9.695
  14.400         59.17	     8.426
