
Filename:
	C:\Program Files\Thermo Electron\WinXRD\Datafiles\F_HERMAN\GEO\G82_RT.raw

File Created:
	February 21, 2020 - 01:14 AM

Specimen Id:
	G82_RT

Specimen Name:
	

Specimen Description:
	

Comment:
Scan Type: 2Theta Scan
Start Angle: 3 deg.
Stop Angle: 65 deg.
Num Points: 3101
Step Size: 0.02 deg.
Scan Rate: 1.000000
Scan Mode: Continuous
Wavelength: 1.540562
\Kalpha1: 1.540562	\Kalpha2: 1.544390	\Kbeta: 1.392218

Optics:
		Detector:
			 Type: Fixed Slits
		Tube: 
			 Type: Fixed Slits


Datas:
 Pos [deg]       Rate [CPS]      ESD [-]

Range 1 ---> Iteration 1
   3.000        471.67	    23.791
   3.020        466.67	    23.664
   3.040        434.17	    22.825
   3.060        433.33	    22.804
   3.080        441.67	    23.022
   3.100        430.83	    22.738
   3.120        401.67	    21.954
   3.140        429.17	    22.694
   3.160        445.83	    23.130
   3.180        404.17	    22.023
   3.200        380.00	    21.354
   3.220        419.17	    22.428
   3.240        412.50	    22.249
   3.260        408.33	    22.136
   3.280        390.83	    21.656
   3.300        365.00	    20.928
   3.320        406.67	    22.091
   3.340        373.33	    21.166
   3.360        368.33	    21.024
   3.380        395.83	    21.794
   3.400        375.00	    21.213
   3.420        388.33	    21.587
   3.440        399.17	    21.886
   3.460        369.17	    21.048
   3.480        384.17	    21.471
   3.500        368.33	    21.024
   3.520        379.17	    21.331
   3.540        365.83	    20.952
   3.560        350.00	    20.494
   3.580        370.00	    21.071
   3.600        351.67	    20.543
   3.620        363.33	    20.881
   3.640        368.33	    21.024
   3.660        348.33	    20.445
   3.680        371.67	    21.119
   3.700        334.17	    20.025
   3.720        322.50	    19.672
   3.740        326.67	    19.799
   3.760        334.17	    20.025
   3.780        336.67	    20.100
   3.800        360.00	    20.785
   3.820        327.50	    19.824
   3.840        325.83	    19.774
   3.860        333.33	    20.000
   3.880        319.17	    19.570
   3.900        341.67	    20.248
   3.920        346.67	    20.396
   3.940        312.50	    19.365
   3.960        305.83	    19.157
   3.980        315.83	    19.468
   4.000        323.33	    19.698
   4.020        311.67	    19.339
   4.040        320.00	    19.596
   4.060        301.67	    19.026
   4.080        278.33	    18.276
   4.100        312.50	    19.365
   4.120        290.00	    18.655
   4.140        295.83	    18.841
   4.160        314.17	    19.416
   4.180        317.50	    19.519
   4.200        310.83	    19.313
   4.220        293.33	    18.762
   4.240        299.17	    18.947
   4.260        269.17	    17.972
   4.280        313.33	    19.391
   4.300        295.83	    18.841
   4.320        313.33	    19.391
   4.340        271.67	    18.055
   4.360        283.33	    18.439
   4.380        325.83	    19.774
   4.400        283.33	    18.439
   4.420        272.50	    18.083
   4.440        297.50	    18.894
   4.460        280.00	    18.330
   4.480        275.00	    18.166
   4.500        316.67	    19.494
   4.520        280.83	    18.358
   4.540        285.83	    18.520
   4.560        273.33	    18.111
   4.580        252.50	    17.407
   4.600        255.00	    17.493
   4.620        259.17	    17.635
   4.640        278.33	    18.276
   4.660        292.50	    18.735
   4.680        275.00	    18.166
   4.700        261.67	    17.720
   4.720        295.83	    18.841
   4.740        236.67	    16.852
   4.760        292.50	    18.735
   4.780        240.00	    16.971
   4.800        254.17	    17.464
   4.820        257.50	    17.578
   4.840        255.00	    17.493
   4.860        237.50	    16.882
   4.880        255.00	    17.493
   4.900        240.83	    17.000
   4.920        269.17	    17.972
   4.940        256.67	    17.550
   4.960        259.17	    17.635
   4.980        252.50	    17.407
   5.000        290.83	    18.682
   5.020        230.00	    16.613
   5.040        241.67	    17.029
   5.060        248.33	    17.263
   5.080        265.83	    17.861
   5.100        232.50	    16.703
   5.120        215.83	    16.093
   5.140        241.67	    17.029
   5.160        255.83	    17.521
   5.180        230.83	    16.643
   5.200        211.67	    15.937
   5.220        246.67	    17.205
   5.240        243.33	    17.088
   5.260        230.83	    16.643
   5.280        200.00	    15.492
   5.300        241.67	    17.029
   5.320        236.67	    16.852
   5.340        221.67	    16.310
   5.360        230.00	    16.613
   5.380        236.67	    16.852
   5.400        213.33	    16.000
   5.420        239.17	    16.941
   5.440        229.17	    16.583
   5.460        230.83	    16.643
   5.480        247.50	    17.234
   5.500        228.33	    16.553
   5.520        204.17	    15.652
   5.540        229.17	    16.583
   5.560        222.50	    16.340
   5.580        219.17	    16.217
   5.600        221.67	    16.310
   5.620        185.00	    14.900
   5.640        222.50	    16.340
   5.660        210.83	    15.906
   5.680        220.83	    16.279
   5.700        224.17	    16.401
   5.720        227.50	    16.523
   5.740        220.00	    16.248
   5.760        197.50	    15.395
   5.780        225.00	    16.432
   5.800        219.17	    16.217
   5.820        200.00	    15.492
   5.840        216.67	    16.125
   5.860        210.83	    15.906
   5.880        198.33	    15.427
   5.900        230.00	    16.613
   5.920        204.17	    15.652
   5.940        210.00	    15.875
   5.960        205.00	    15.684
   5.980        230.83	    16.643
   6.000        198.33	    15.427
   6.020        217.50	    16.155
   6.040        205.83	    15.716
   6.060        214.17	    16.031
   6.080        214.17	    16.031
   6.100        222.50	    16.340
   6.120        230.83	    16.643
   6.140        203.33	    15.620
   6.160        246.67	    17.205
   6.180        223.33	    16.371
   6.200        227.50	    16.523
   6.220        190.83	    15.133
   6.240        215.83	    16.093
   6.260        210.83	    15.906
   6.280        220.83	    16.279
   6.300        198.33	    15.427
   6.320        205.00	    15.684
   6.340        167.50	    14.177
   6.360        196.67	    15.362
   6.380        190.83	    15.133
   6.400        181.67	    14.765
   6.420        183.33	    14.832
   6.440        206.67	    15.748
   6.460        183.33	    14.832
   6.480        199.17	    15.460
   6.500        184.17	    14.866
   6.520        201.67	    15.556
   6.540        193.33	    15.232
   6.560        193.33	    15.232
   6.580        177.50	    14.595
   6.600        195.00	    15.297
   6.620        181.67	    14.765
   6.640        181.67	    14.765
   6.660        167.50	    14.177
   6.680        193.33	    15.232
   6.700        174.17	    14.457
   6.720        166.67	    14.142
   6.740        132.50	    12.610
   6.760        176.67	    14.560
   6.780        186.67	    14.967
   6.800        170.83	    14.318
   6.820        188.33	    15.033
   6.840        180.00	    14.697
   6.860        170.00	    14.283
   6.880        189.17	    15.067
   6.900        197.50	    15.395
   6.920        183.33	    14.832
   6.940        173.33	    14.422
   6.960        175.83	    14.526
   6.980        170.83	    14.318
   7.000        156.67	    13.711
   7.020        164.17	    14.036
   7.040        167.50	    14.177
   7.060        165.83	    14.107
   7.080        166.67	    14.142
   7.100        171.67	    14.353
   7.120        165.83	    14.107
   7.140        160.83	    13.892
   7.160        160.83	    13.892
   7.180        180.00	    14.697
   7.200        143.33	    13.115
   7.220        178.33	    14.629
   7.240        158.33	    13.784
   7.260        157.50	    13.748
   7.280        179.17	    14.663
   7.300        146.67	    13.266
   7.320        153.33	    13.565
   7.340        151.67	    13.491
   7.360        156.67	    13.711
   7.380        155.00	    13.638
   7.400        172.50	    14.387
   7.420        156.67	    13.711
   7.440        146.67	    13.266
   7.460        156.67	    13.711
   7.480        160.00	    13.856
   7.500        157.50	    13.748
   7.520        146.67	    13.266
   7.540        152.50	    13.528
   7.560        155.83	    13.675
   7.580        181.67	    14.765
   7.600        162.50	    13.964
   7.620        147.50	    13.304
   7.640        163.33	    14.000
   7.660        145.00	    13.191
   7.680        129.17	    12.450
   7.700        150.00	    13.416
   7.720        157.50	    13.748
   7.740        158.33	    13.784
   7.760        138.33	    12.884
   7.780        160.00	    13.856
   7.800        160.83	    13.892
   7.820        133.33	    12.649
   7.840        168.33	    14.213
   7.860        138.33	    12.884
   7.880        159.17	    13.820
   7.900        135.83	    12.767
   7.920        163.33	    14.000
   7.940        145.00	    13.191
   7.960        136.67	    12.806
   7.980        155.83	    13.675
   8.000        157.50	    13.748
   8.020        130.00	    12.490
   8.040        155.00	    13.638
   8.060        151.67	    13.491
   8.080        132.50	    12.610
   8.100        158.33	    13.784
   8.120        133.33	    12.649
   8.140        151.67	    13.491
   8.160        153.33	    13.565
   8.180        142.50	    13.077
   8.200        147.50	    13.304
   8.220        140.00	    12.961
   8.240        155.83	    13.675
   8.260        155.83	    13.675
   8.280        150.00	    13.416
   8.300        147.50	    13.304
   8.320        145.83	    13.229
   8.340        139.17	    12.923
   8.360        174.17	    14.457
   8.380        147.50	    13.304
   8.400        150.00	    13.416
   8.420        144.17	    13.153
   8.440        159.17	    13.820
   8.460        143.33	    13.115
   8.480        142.50	    13.077
   8.500        157.50	    13.748
   8.520        160.83	    13.892
   8.540        155.00	    13.638
   8.560        194.17	    15.264
   8.580        157.50	    13.748
   8.600        147.50	    13.304
   8.620        179.17	    14.663
   8.640        190.00	    15.100
   8.660        191.67	    15.166
   8.680        205.83	    15.716
   8.700        225.83	    16.462
   8.720        234.17	    16.763
   8.740        237.50	    16.882
   8.760        272.50	    18.083
   8.780        345.00	    20.347
   8.800        439.17	    22.956
   8.820        480.00	    24.000
   8.840        362.50	    20.857
   8.860        272.50	    18.083
   8.880        182.50	    14.799
   8.900        149.17	    13.379
   8.920        129.17	    12.450
   8.940        142.50	    13.077
   8.960        142.50	    13.077
   8.980        136.67	    12.806
   9.000        145.00	    13.191
   9.020        135.00	    12.728
   9.040        127.50	    12.369
   9.060        120.83	    12.042
   9.080        136.67	    12.806
   9.100        142.50	    13.077
   9.120        125.83	    12.288
   9.140        135.83	    12.767
   9.160        132.50	    12.610
   9.180        129.17	    12.450
   9.200        140.83	    13.000
   9.220        128.33	    12.410
   9.240        125.83	    12.288
   9.260        135.83	    12.767
   9.280        121.67	    12.083
   9.300        126.67	    12.329
   9.320        147.50	    13.304
   9.340        137.50	    12.845
   9.360        144.17	    13.153
   9.380        137.50	    12.845
   9.400        128.33	    12.410
   9.420        129.17	    12.450
   9.440        125.00	    12.247
   9.460        121.67	    12.083
   9.480        106.67	    11.314
   9.500        117.50	    11.874
   9.520        113.33	    11.662
   9.540        127.50	    12.369
   9.560        113.33	    11.662
   9.580        120.83	    12.042
   9.600        121.67	    12.083
   9.620        117.50	    11.874
   9.640        115.00	    11.747
   9.660        121.67	    12.083
   9.680        124.17	    12.207
   9.700        140.83	    13.000
   9.720        143.33	    13.115
   9.740        140.83	    13.000
   9.760        120.83	    12.042
   9.780        123.33	    12.166
   9.800        120.00	    12.000
   9.820        105.00	    11.225
   9.840        113.33	    11.662
   9.860        120.00	    12.000
   9.880        115.00	    11.747
   9.900        120.00	    12.000
   9.920        112.50	    11.619
   9.940        123.33	    12.166
   9.960        120.83	    12.042
   9.980        130.00	    12.490
  10.000        111.67	    11.576
  10.020        116.67	    11.832
  10.040        105.00	    11.225
  10.060        110.83	    11.533
  10.080         96.67	    10.770
  10.100        133.33	    12.649
  10.120        110.83	    11.533
  10.140        110.00	    11.489
  10.160        128.33	    12.410
  10.180        105.83	    11.269
  10.200        104.17	    11.180
  10.220        132.50	    12.610
  10.240        110.83	    11.533
  10.260        116.67	    11.832
  10.280        105.83	    11.269
  10.300        129.17	    12.450
  10.320        129.17	    12.450
  10.340        116.67	    11.832
  10.360        116.67	    11.832
  10.380        110.83	    11.533
  10.400        118.33	    11.916
  10.420        149.17	    13.379
  10.440        217.50	    16.155
  10.460        191.67	    15.166
  10.480        161.67	    13.928
  10.500        133.33	    12.649
  10.520        134.17	    12.689
  10.540        106.67	    11.314
  10.560        129.17	    12.450
  10.580        122.50	    12.124
  10.600        104.17	    11.180
  10.620         87.50	    10.247
  10.640        100.00	    10.954
  10.660        111.67	    11.576
  10.680        105.00	    11.225
  10.700        106.67	    11.314
  10.720        108.33	    11.402
  10.740        100.83	    11.000
  10.760         92.50	    10.536
  10.780        111.67	    11.576
  10.800         95.00	    10.677
  10.820         91.67	    10.488
  10.840        109.17	    11.446
  10.860         95.83	    10.724
  10.880        117.50	    11.874
  10.900         90.83	    10.440
  10.920        105.00	    11.225
  10.940         97.50	    10.817
  10.960        105.00	    11.225
  10.980        119.17	    11.958
  11.000        108.33	    11.402
  11.020        108.33	    11.402
  11.040         96.67	    10.770
  11.060        107.50	    11.358
  11.080         97.50	    10.817
  11.100         95.83	    10.724
  11.120         93.33	    10.583
  11.140         97.50	    10.817
  11.160        115.83	    11.790
  11.180        109.17	    11.446
  11.200        105.83	    11.269
  11.220        121.67	    12.083
  11.240        116.67	    11.832
  11.260        112.50	    11.619
  11.280         93.33	    10.583
  11.300         98.33	    10.863
  11.320        110.83	    11.533
  11.340         99.17	    10.909
  11.360         99.17	    10.909
  11.380         86.67	    10.198
  11.400        101.67	    11.045
  11.420         97.50	    10.817
  11.440        102.50	    11.091
  11.460        107.50	    11.358
  11.480         92.50	    10.536
  11.500         95.00	    10.677
  11.520        105.00	    11.225
  11.540         95.00	    10.677
  11.560        109.17	    11.446
  11.580         94.17	    10.630
  11.600        102.50	    11.091
  11.620         95.00	    10.677
  11.640         95.83	    10.724
  11.660        104.17	    11.180
  11.680        102.50	    11.091
  11.700        116.67	    11.832
  11.720        104.17	    11.180
  11.740        100.00	    10.954
  11.760        112.50	    11.619
  11.780         93.33	    10.583
  11.800         97.50	    10.817
  11.820         87.50	    10.247
  11.840         98.33	    10.863
  11.860        103.33	    11.136
  11.880         93.33	    10.583
  11.900        116.67	    11.832
  11.920        103.33	    11.136
  11.940        115.00	    11.747
  11.960        110.00	    11.489
  11.980        108.33	    11.402
  12.000        105.00	    11.225
  12.020        136.67	    12.806
  12.040        147.50	    13.304
  12.060        140.83	    13.000
  12.080        190.00	    15.100
  12.100        190.83	    15.133
  12.120        235.83	    16.823
  12.140        265.00	    17.833
  12.160        245.00	    17.146
  12.180        165.83	    14.107
  12.200        140.83	    13.000
  12.220        129.17	    12.450
  12.240        130.00	    12.490
  12.260        112.50	    11.619
  12.280        116.67	    11.832
  12.300        133.33	    12.649
  12.320        135.83	    12.767
  12.340        145.00	    13.191
  12.360        131.67	    12.570
  12.380        143.33	    13.115
  12.400        185.83	    14.933
  12.420        195.00	    15.297
  12.440        187.50	    15.000
  12.460        161.67	    13.928
  12.480        137.50	    12.845
  12.500        118.33	    11.916
  12.520        100.83	    11.000
  12.540        103.33	    11.136
  12.560        105.83	    11.269
  12.580         99.17	    10.909
  12.600         93.33	    10.583
  12.620        103.33	    11.136
  12.640         85.00	    10.100
  12.660         81.67	     9.899
  12.680        100.00	    10.954
  12.700         98.33	    10.863
  12.720         82.50	     9.950
  12.740         84.17	    10.050
  12.760         93.33	    10.583
  12.780         89.17	    10.344
  12.800         86.67	    10.198
  12.820        105.83	    11.269
  12.840         90.00	    10.392
  12.860         79.17	     9.747
  12.880         97.50	    10.817
  12.900         77.50	     9.644
  12.920         95.83	    10.724
  12.940        100.00	    10.954
  12.960        102.50	    11.091
  12.980         75.83	     9.539
  13.000         78.33	     9.695
  13.020         80.00	     9.798
  13.040         85.00	    10.100
  13.060         75.83	     9.539
  13.080        100.83	    11.000
  13.100         95.83	    10.724
  13.120         91.67	    10.488
  13.140         92.50	    10.536
  13.160         85.83	    10.149
  13.180         95.83	    10.724
  13.200         84.17	    10.050
  13.220        108.33	    11.402
  13.240         81.67	     9.899
  13.260         81.67	     9.899
  13.280         89.17	    10.344
  13.300         97.50	    10.817
  13.320         69.17	     9.110
  13.340         88.33	    10.296
  13.360        100.00	    10.954
  13.380         85.83	    10.149
  13.400         96.67	    10.770
  13.420         85.83	    10.149
  13.440         88.33	    10.296
  13.460         93.33	    10.583
  13.480         92.50	    10.536
  13.500         86.67	    10.198
  13.520         95.00	    10.677
  13.540         85.00	    10.100
  13.560         91.67	    10.488
  13.580        104.17	    11.180
  13.600         76.67	     9.592
  13.620        101.67	    11.045
  13.640         82.50	     9.950
  13.660         95.83	    10.724
  13.680         88.33	    10.296
  13.700         91.67	    10.488
  13.720         89.17	    10.344
  13.740         91.67	    10.488
  13.760        109.17	    11.446
  13.780        115.00	    11.747
  13.800         90.83	    10.440
  13.820        105.00	    11.225
  13.840         93.33	    10.583
  13.860        104.17	    11.180
  13.880        100.83	    11.000
  13.900         99.17	    10.909
  13.920         83.33	    10.000
  13.940         88.33	    10.296
  13.960         81.67	     9.899
  13.980         79.17	     9.747
  14.000         86.67	    10.198
  14.020         77.50	     9.644
  14.040         73.33	     9.381
  14.060         75.83	     9.539
  14.080         82.50	     9.950
  14.100         77.50	     9.644
  14.120         77.50	     9.644
  14.140         58.33	     8.367
  14.160         77.50	     9.644
  14.180         77.50	     9.644
  14.200         70.00	     9.165
  14.220         97.50	    10.817
  14.240         82.50	     9.950
  14.260         78.33	     9.695
  14.280         81.67	     9.899
  14.300         84.17	    10.050
  14.320         70.83	     9.220
  14.340         92.50	    10.536
  14.360         83.33	    10.000
  14.380         69.17	     9.110
  14.400         70.83	     9.220
