
Filename:
	C:\Program Files\Thermo Electron\WinXRD\Datafiles\F_HERMAN\GEO\G83_RT.raw

File Created:
	February 21, 2020 - 02:16 AM

Specimen Id:
	G83_RT

Specimen Name:
	

Specimen Description:
	

Comment:
Scan Type: 2Theta Scan
Start Angle: 3 deg.
Stop Angle: 65 deg.
Num Points: 3101
Step Size: 0.02 deg.
Scan Rate: 1.000000
Scan Mode: Continuous
Wavelength: 1.540562
\Kalpha1: 1.540562	\Kalpha2: 1.544390	\Kbeta: 1.392218

Optics:
		Detector:
			 Type: Fixed Slits
		Tube: 
			 Type: Fixed Slits


Datas:
 Pos [deg]       Rate [CPS]      ESD [-]

Range 1 ---> Iteration 1
   3.000        435.83	    22.869
   3.020        444.17	    23.087
   3.040        425.83	    22.605
   3.060        439.17	    22.956
   3.080        435.83	    22.869
   3.100        415.00	    22.316
   3.120        390.00	    21.633
   3.140        468.33	    23.707
   3.160        414.17	    22.293
   3.180        395.00	    21.772
   3.200        384.17	    21.471
   3.220        380.00	    21.354
   3.240        405.00	    22.045
   3.260        400.00	    21.909
   3.280        404.17	    22.023
   3.300        372.50	    21.142
   3.320        382.50	    21.424
   3.340        385.83	    21.517
   3.360        374.17	    21.190
   3.380        376.67	    21.260
   3.400        382.50	    21.424
   3.420        364.17	    20.905
   3.440        336.67	    20.100
   3.460        380.00	    21.354
   3.480        374.17	    21.190
   3.500        371.67	    21.119
   3.520        373.33	    21.166
   3.540        333.33	    20.000
   3.560        361.67	    20.833
   3.580        328.33	    19.849
   3.600        365.83	    20.952
   3.620        347.50	    20.421
   3.640        310.83	    19.313
   3.660        345.83	    20.372
   3.680        366.67	    20.976
   3.700        338.33	    20.149
   3.720        340.00	    20.199
   3.740        357.50	    20.712
   3.760        348.33	    20.445
   3.780        319.17	    19.570
   3.800        326.67	    19.799
   3.820        353.33	    20.591
   3.840        333.33	    20.000
   3.860        305.83	    19.157
   3.880        349.17	    20.469
   3.900        301.67	    19.026
   3.920        324.17	    19.723
   3.940        336.67	    20.100
   3.960        317.50	    19.519
   3.980        301.67	    19.026
   4.000        284.17	    18.466
   4.020        310.83	    19.313
   4.040        300.00	    18.974
   4.060        325.00	    19.748
   4.080        318.33	    19.545
   4.100        321.67	    19.647
   4.120        300.00	    18.974
   4.140        302.50	    19.053
   4.160        319.17	    19.570
   4.180        250.83	    17.349
   4.200        289.17	    18.628
   4.220        295.83	    18.841
   4.240        287.50	    18.574
   4.260        271.67	    18.055
   4.280        280.00	    18.330
   4.300        266.67	    17.889
   4.320        270.83	    18.028
   4.340        265.83	    17.861
   4.360        257.50	    17.578
   4.380        270.00	    18.000
   4.400        245.83	    17.176
   4.420        250.00	    17.321
   4.440        258.33	    17.607
   4.460        278.33	    18.276
   4.480        246.67	    17.205
   4.500        263.33	    17.776
   4.520        252.50	    17.407
   4.540        265.00	    17.833
   4.560        280.83	    18.358
   4.580        275.83	    18.193
   4.600        260.00	    17.664
   4.620        241.67	    17.029
   4.640        263.33	    17.776
   4.660        270.00	    18.000
   4.680        254.17	    17.464
   4.700        284.17	    18.466
   4.720        224.17	    16.401
   4.740        259.17	    17.635
   4.760        233.33	    16.733
   4.780        240.83	    17.000
   4.800        243.33	    17.088
   4.820        230.83	    16.643
   4.840        225.00	    16.432
   4.860        245.83	    17.176
   4.880        266.67	    17.889
   4.900        244.17	    17.117
   4.920        241.67	    17.029
   4.940        237.50	    16.882
   4.960        265.83	    17.861
   4.980        226.67	    16.492
   5.000        216.67	    16.125
   5.020        221.67	    16.310
   5.040        212.50	    15.969
   5.060        242.50	    17.059
   5.080        250.00	    17.321
   5.100        232.50	    16.703
   5.120        219.17	    16.217
   5.140        236.67	    16.852
   5.160        211.67	    15.937
   5.180        235.83	    16.823
   5.200        238.33	    16.912
   5.220        222.50	    16.340
   5.240        242.50	    17.059
   5.260        212.50	    15.969
   5.280        210.00	    15.875
   5.300        204.17	    15.652
   5.320        219.17	    16.217
   5.340        212.50	    15.969
   5.360        208.33	    15.811
   5.380        206.67	    15.748
   5.400        206.67	    15.748
   5.420        242.50	    17.059
   5.440        201.67	    15.556
   5.460        203.33	    15.620
   5.480        216.67	    16.125
   5.500        199.17	    15.460
   5.520        220.83	    16.279
   5.540        215.83	    16.093
   5.560        204.17	    15.652
   5.580        207.50	    15.780
   5.600        196.67	    15.362
   5.620        186.67	    14.967
   5.640        208.33	    15.811
   5.660        210.83	    15.906
   5.680        219.17	    16.217
   5.700        196.67	    15.362
   5.720        205.83	    15.716
   5.740        214.17	    16.031
   5.760        190.83	    15.133
   5.780        199.17	    15.460
   5.800        190.00	    15.100
   5.820        195.00	    15.297
   5.840        189.17	    15.067
   5.860        175.83	    14.526
   5.880        195.00	    15.297
   5.900        210.83	    15.906
   5.920        201.67	    15.556
   5.940        178.33	    14.629
   5.960        176.67	    14.560
   5.980        165.00	    14.071
   6.000        163.33	    14.000
   6.020        199.17	    15.460
   6.040        186.67	    14.967
   6.060        206.67	    15.748
   6.080        194.17	    15.264
   6.100        205.00	    15.684
   6.120        196.67	    15.362
   6.140        202.50	    15.588
   6.160        197.50	    15.395
   6.180        215.83	    16.093
   6.200        171.67	    14.353
   6.220        175.00	    14.491
   6.240        190.83	    15.133
   6.260        179.17	    14.663
   6.280        176.67	    14.560
   6.300        205.00	    15.684
   6.320        170.83	    14.318
   6.340        172.50	    14.387
   6.360        170.83	    14.318
   6.380        156.67	    13.711
   6.400        168.33	    14.213
   6.420        158.33	    13.784
   6.440        193.33	    15.232
   6.460        175.83	    14.526
   6.480        187.50	    15.000
   6.500        185.83	    14.933
   6.520        157.50	    13.748
   6.540        172.50	    14.387
   6.560        165.00	    14.071
   6.580        159.17	    13.820
   6.600        155.00	    13.638
   6.620        169.17	    14.248
   6.640        182.50	    14.799
   6.660        176.67	    14.560
   6.680        157.50	    13.748
   6.700        155.00	    13.638
   6.720        165.83	    14.107
   6.740        164.17	    14.036
   6.760        159.17	    13.820
   6.780        175.00	    14.491
   6.800        139.17	    12.923
   6.820        155.83	    13.675
   6.840        159.17	    13.820
   6.860        174.17	    14.457
   6.880        164.17	    14.036
   6.900        180.83	    14.731
   6.920        130.83	    12.530
   6.940        140.00	    12.961
   6.960        153.33	    13.565
   6.980        141.67	    13.038
   7.000        155.00	    13.638
   7.020        155.00	    13.638
   7.040        177.50	    14.595
   7.060        158.33	    13.784
   7.080        162.50	    13.964
   7.100        162.50	    13.964
   7.120        152.50	    13.528
   7.140        155.00	    13.638
   7.160        175.83	    14.526
   7.180        149.17	    13.379
   7.200        141.67	    13.038
   7.220        165.83	    14.107
   7.240        161.67	    13.928
   7.260        155.00	    13.638
   7.280        146.67	    13.266
   7.300        152.50	    13.528
   7.320        172.50	    14.387
   7.340        152.50	    13.528
   7.360        131.67	    12.570
   7.380        150.00	    13.416
   7.400        135.83	    12.767
   7.420        155.00	    13.638
   7.440        160.83	    13.892
   7.460        149.17	    13.379
   7.480        158.33	    13.784
   7.500        146.67	    13.266
   7.520        138.33	    12.884
   7.540        145.00	    13.191
   7.560        141.67	    13.038
   7.580        145.00	    13.191
   7.600        154.17	    13.601
   7.620        155.83	    13.675
   7.640        122.50	    12.124
   7.660        155.83	    13.675
   7.680        156.67	    13.711
   7.700        150.00	    13.416
   7.720        145.83	    13.229
   7.740        138.33	    12.884
   7.760        139.17	    12.923
   7.780        138.33	    12.884
   7.800        146.67	    13.266
   7.820        151.67	    13.491
   7.840        117.50	    11.874
   7.860        128.33	    12.410
   7.880        126.67	    12.329
   7.900        150.00	    13.416
   7.920        149.17	    13.379
   7.940        124.17	    12.207
   7.960        132.50	    12.610
   7.980        150.83	    13.454
   8.000        160.00	    13.856
   8.020        144.17	    13.153
   8.040        138.33	    12.884
   8.060        122.50	    12.124
   8.080        130.00	    12.490
   8.100        122.50	    12.124
   8.120        105.00	    11.225
   8.140        135.00	    12.728
   8.160        130.83	    12.530
   8.180        124.17	    12.207
   8.200        137.50	    12.845
   8.220        140.00	    12.961
   8.240        130.83	    12.530
   8.260        136.67	    12.806
   8.280        140.83	    13.000
   8.300        128.33	    12.410
   8.320        125.83	    12.288
   8.340        116.67	    11.832
   8.360        135.83	    12.767
   8.380        125.83	    12.288
   8.400        116.67	    11.832
   8.420        126.67	    12.329
   8.440        123.33	    12.166
   8.460        116.67	    11.832
   8.480        119.17	    11.958
   8.500        133.33	    12.649
   8.520        128.33	    12.410
   8.540        134.17	    12.689
   8.560        125.83	    12.288
   8.580        135.00	    12.728
   8.600        135.83	    12.767
   8.620        130.00	    12.490
   8.640        117.50	    11.874
   8.660        145.00	    13.191
   8.680        142.50	    13.077
   8.700        148.33	    13.342
   8.720        137.50	    12.845
   8.740        159.17	    13.820
   8.760        177.50	    14.595
   8.780        216.67	    16.125
   8.800        195.00	    15.297
   8.820        188.33	    15.033
   8.840        170.00	    14.283
   8.860        126.67	    12.329
   8.880        134.17	    12.689
   8.900        125.83	    12.288
   8.920        129.17	    12.450
   8.940        130.83	    12.530
   8.960        106.67	    11.314
   8.980        126.67	    12.329
   9.000        121.67	    12.083
   9.020        110.83	    11.533
   9.040        100.83	    11.000
   9.060        110.83	    11.533
   9.080        119.17	    11.958
   9.100        120.00	    12.000
   9.120        146.67	    13.266
   9.140        122.50	    12.124
   9.160         95.83	    10.724
   9.180        119.17	    11.958
   9.200        112.50	    11.619
   9.220        115.00	    11.747
   9.240        120.83	    12.042
   9.260        106.67	    11.314
   9.280        104.17	    11.180
   9.300        128.33	    12.410
   9.320        132.50	    12.610
   9.340        116.67	    11.832
   9.360        114.17	    11.705
   9.380        116.67	    11.832
   9.400        115.00	    11.747
   9.420        123.33	    12.166
   9.440        109.17	    11.446
   9.460        114.17	    11.705
   9.480        116.67	    11.832
   9.500        104.17	    11.180
   9.520        120.83	    12.042
   9.540        109.17	    11.446
   9.560        100.00	    10.954
   9.580        101.67	    11.045
   9.600         93.33	    10.583
   9.620         99.17	    10.909
   9.640        105.00	    11.225
   9.660         92.50	    10.536
   9.680        105.83	    11.269
   9.700        133.33	    12.649
   9.720        127.50	    12.369
   9.740        123.33	    12.166
   9.760        121.67	    12.083
   9.780        114.17	    11.705
   9.800        125.83	    12.288
   9.820         97.50	    10.817
   9.840        117.50	    11.874
   9.860        105.00	    11.225
   9.880        116.67	    11.832
   9.900        101.67	    11.045
   9.920        104.17	    11.180
   9.940        105.00	    11.225
   9.960        103.33	    11.136
   9.980         96.67	    10.770
  10.000        111.67	    11.576
  10.020        116.67	    11.832
  10.040         92.50	    10.536
  10.060        103.33	    11.136
  10.080         88.33	    10.296
  10.100        108.33	    11.402
  10.120        108.33	    11.402
  10.140        114.17	    11.705
  10.160         85.83	    10.149
  10.180        105.00	    11.225
  10.200         86.67	    10.198
  10.220         96.67	    10.770
  10.240         98.33	    10.863
  10.260         96.67	    10.770
  10.280         98.33	    10.863
  10.300         99.17	    10.909
  10.320        113.33	    11.662
  10.340        104.17	    11.180
  10.360        103.33	    11.136
  10.380        101.67	    11.045
  10.400        105.83	    11.269
  10.420        101.67	    11.045
  10.440        115.83	    11.790
  10.460        116.67	    11.832
  10.480        121.67	    12.083
  10.500         92.50	    10.536
  10.520        110.83	    11.533
  10.540         96.67	    10.770
  10.560         95.83	    10.724
  10.580         96.67	    10.770
  10.600         96.67	    10.770
  10.620        103.33	    11.136
  10.640         95.00	    10.677
  10.660         86.67	    10.198
  10.680         95.83	    10.724
  10.700         91.67	    10.488
  10.720         87.50	    10.247
  10.740        111.67	    11.576
  10.760        115.83	    11.790
  10.780         81.67	     9.899
  10.800         90.00	    10.392
  10.820         89.17	    10.344
  10.840         98.33	    10.863
  10.860        100.00	    10.954
  10.880         94.17	    10.630
  10.900         92.50	    10.536
  10.920        105.00	    11.225
  10.940         88.33	    10.296
  10.960         90.00	    10.392
  10.980         76.67	     9.592
  11.000         88.33	    10.296
  11.020         97.50	    10.817
  11.040         87.50	    10.247
  11.060         90.83	    10.440
  11.080         92.50	    10.536
  11.100         88.33	    10.296
  11.120         90.83	    10.440
  11.140         69.17	     9.110
  11.160         87.50	    10.247
  11.180         91.67	    10.488
  11.200         93.33	    10.583
  11.220         95.00	    10.677
  11.240         71.67	     9.274
  11.260        105.00	    11.225
  11.280         95.83	    10.724
  11.300         85.83	    10.149
  11.320         96.67	    10.770
  11.340         82.50	     9.950
  11.360         84.17	    10.050
  11.380         74.17	     9.434
  11.400         97.50	    10.817
  11.420         88.33	    10.296
  11.440         76.67	     9.592
  11.460         86.67	    10.198
  11.480         87.50	    10.247
  11.500         78.33	     9.695
  11.520         89.17	    10.344
  11.540         88.33	    10.296
  11.560         86.67	    10.198
  11.580         87.50	    10.247
  11.600         88.33	    10.296
  11.620         94.17	    10.630
  11.640        100.00	    10.954
  11.660         91.67	    10.488
  11.680         95.00	    10.677
  11.700         81.67	     9.899
  11.720         85.00	    10.100
  11.740         80.00	     9.798
  11.760         87.50	    10.247
  11.780         92.50	    10.536
  11.800         92.50	    10.536
  11.820        102.50	    11.091
  11.840         66.67	     8.944
  11.860         73.33	     9.381
  11.880         95.00	    10.677
  11.900         91.67	    10.488
  11.920         90.00	    10.392
  11.940         73.33	     9.381
  11.960         87.50	    10.247
  11.980         98.33	    10.863
  12.000         95.83	    10.724
  12.020        103.33	    11.136
  12.040        113.33	    11.662
  12.060        107.50	    11.358
  12.080        120.83	    12.042
  12.100        123.33	    12.166
  12.120        140.00	    12.961
  12.140        151.67	    13.491
  12.160        161.67	    13.928
  12.180        138.33	    12.884
  12.200        114.17	    11.705
  12.220         90.00	    10.392
  12.240         82.50	     9.950
  12.260         98.33	    10.863
  12.280         99.17	    10.909
  12.300        100.83	    11.000
  12.320        104.17	    11.180
  12.340         82.50	     9.950
  12.360         93.33	    10.583
  12.380        136.67	    12.806
  12.400        118.33	    11.916
  12.420        114.17	    11.705
  12.440        121.67	    12.083
  12.460        107.50	    11.358
  12.480         84.17	    10.050
  12.500         80.83	     9.849
  12.520         87.50	    10.247
  12.540         81.67	     9.899
  12.560        101.67	    11.045
  12.580         85.83	    10.149
  12.600         92.50	    10.536
  12.620         92.50	    10.536
  12.640         90.83	    10.440
  12.660         91.67	    10.488
  12.680         75.83	     9.539
  12.700         84.17	    10.050
  12.720         86.67	    10.198
  12.740         69.17	     9.110
  12.760         85.00	    10.100
  12.780         64.17	     8.775
  12.800         75.83	     9.539
  12.820         87.50	    10.247
  12.840         81.67	     9.899
  12.860         82.50	     9.950
  12.880         70.00	     9.165
  12.900         78.33	     9.695
  12.920         81.67	     9.899
  12.940         66.67	     8.944
  12.960         95.00	    10.677
  12.980         81.67	     9.899
  13.000         75.00	     9.487
  13.020         76.67	     9.592
  13.040         77.50	     9.644
  13.060         80.00	     9.798
  13.080         85.00	    10.100
  13.100         78.33	     9.695
  13.120         76.67	     9.592
  13.140         77.50	     9.644
  13.160         79.17	     9.747
  13.180         73.33	     9.381
  13.200         72.50	     9.327
  13.220         85.83	    10.149
  13.240         75.00	     9.487
  13.260         70.00	     9.165
  13.280         79.17	     9.747
  13.300         77.50	     9.644
  13.320         92.50	    10.536
  13.340         76.67	     9.592
  13.360         79.17	     9.747
  13.380         72.50	     9.327
  13.400         88.33	    10.296
  13.420         74.17	     9.434
  13.440         68.33	     9.055
  13.460         65.00	     8.832
  13.480         78.33	     9.695
  13.500         60.00	     8.485
  13.520         80.00	     9.798
  13.540         65.00	     8.832
  13.560         83.33	    10.000
  13.580         73.33	     9.381
  13.600         83.33	    10.000
  13.620         75.83	     9.539
  13.640         75.83	     9.539
  13.660         75.83	     9.539
  13.680         67.50	     9.000
  13.700         71.67	     9.274
  13.720         82.50	     9.950
  13.740         70.83	     9.220
  13.760         90.83	    10.440
  13.780         66.67	     8.944
  13.800         83.33	    10.000
  13.820         70.83	     9.220
  13.840         68.33	     9.055
  13.860         54.17	     8.062
  13.880         63.33	     8.718
  13.900         70.83	     9.220
  13.920         67.50	     9.000
  13.940         95.83	    10.724
  13.960         66.67	     8.944
  13.980         73.33	     9.381
  14.000         74.17	     9.434
  14.020         50.00	     7.746
  14.040         70.00	     9.165
  14.060         61.67	     8.602
  14.080         72.50	     9.327
  14.100         60.83	     8.544
  14.120         55.00	     8.124
  14.140         69.17	     9.110
  14.160         75.83	     9.539
  14.180         59.17	     8.426
  14.200         62.50	     8.660
  14.220         60.00	     8.485
  14.240         74.17	     9.434
  14.260         70.83	     9.220
  14.280         65.00	     8.832
  14.300         73.33	     9.381
  14.320         57.50	     8.307
  14.340         61.67	     8.602
  14.360         68.33	     9.055
  14.380         70.00	     9.165
  14.400         50.83	     7.810
