
Filename:
	C:\Program Files\Thermo Electron\WinXRD\Datafiles\F_HERMAN\GEO\G84_RT.raw

File Created:
	February 21, 2020 - 03:19 AM

Specimen Id:
	G84_RT

Specimen Name:
	

Specimen Description:
	

Comment:
Scan Type: 2Theta Scan
Start Angle: 3 deg.
Stop Angle: 65 deg.
Num Points: 3101
Step Size: 0.02 deg.
Scan Rate: 1.000000
Scan Mode: Continuous
Wavelength: 1.540562
\Kalpha1: 1.540562	\Kalpha2: 1.544390	\Kbeta: 1.392218

Optics:
		Detector:
			 Type: Fixed Slits
		Tube: 
			 Type: Fixed Slits


Datas:
 Pos [deg]       Rate [CPS]      ESD [-]

Range 1 ---> Iteration 1
   3.000        466.67	    23.664
   3.020        461.67	    23.537
   3.040        449.17	    23.216
   3.060        446.67	    23.152
   3.080        433.33	    22.804
   3.100        435.83	    22.869
   3.120        445.00	    23.108
   3.140        476.67	    23.917
   3.160        440.00	    22.978
   3.180        439.17	    22.956
   3.200        420.00	    22.450
   3.220        431.67	    22.760
   3.240        394.17	    21.749
   3.260        400.00	    21.909
   3.280        430.83	    22.738
   3.300        401.67	    21.954
   3.320        360.83	    20.809
   3.340        408.33	    22.136
   3.360        367.50	    21.000
   3.380        392.50	    21.703
   3.400        418.33	    22.405
   3.420        404.17	    22.023
   3.440        403.33	    22.000
   3.460        383.33	    21.448
   3.480        358.33	    20.736
   3.500        381.67	    21.401
   3.520        379.17	    21.331
   3.540        384.17	    21.471
   3.560        387.50	    21.564
   3.580        380.00	    21.354
   3.600        387.50	    21.564
   3.620        359.17	    20.761
   3.640        358.33	    20.736
   3.660        342.50	    20.273
   3.680        370.00	    21.071
   3.700        330.00	    19.900
   3.720        350.83	    20.518
   3.740        338.33	    20.149
   3.760        370.00	    21.071
   3.780        335.00	    20.050
   3.800        380.83	    21.378
   3.820        378.33	    21.307
   3.840        318.33	    19.545
   3.860        362.50	    20.857
   3.880        317.50	    19.519
   3.900        340.00	    20.199
   3.920        310.00	    19.287
   3.940        331.67	    19.950
   3.960        350.00	    20.494
   3.980        336.67	    20.100
   4.000        310.83	    19.313
   4.020        290.83	    18.682
   4.040        331.67	    19.950
   4.060        309.17	    19.261
   4.080        325.00	    19.748
   4.100        317.50	    19.519
   4.120        310.83	    19.313
   4.140        310.00	    19.287
   4.160        305.83	    19.157
   4.180        300.83	    19.000
   4.200        336.67	    20.100
   4.220        307.50	    19.209
   4.240        315.00	    19.442
   4.260        311.67	    19.339
   4.280        300.83	    19.000
   4.300        281.67	    18.385
   4.320        265.83	    17.861
   4.340        292.50	    18.735
   4.360        271.67	    18.055
   4.380        295.00	    18.815
   4.400        270.83	    18.028
   4.420        297.50	    18.894
   4.440        288.33	    18.601
   4.460        300.00	    18.974
   4.480        272.50	    18.083
   4.500        263.33	    17.776
   4.520        247.50	    17.234
   4.540        288.33	    18.601
   4.560        310.00	    19.287
   4.580        265.83	    17.861
   4.600        263.33	    17.776
   4.620        266.67	    17.889
   4.640        267.50	    17.916
   4.660        266.67	    17.889
   4.680        272.50	    18.083
   4.700        260.83	    17.692
   4.720        267.50	    17.916
   4.740        263.33	    17.776
   4.760        240.00	    16.971
   4.780        238.33	    16.912
   4.800        260.83	    17.692
   4.820        254.17	    17.464
   4.840        241.67	    17.029
   4.860        280.83	    18.358
   4.880        234.17	    16.763
   4.900        233.33	    16.733
   4.920        258.33	    17.607
   4.940        247.50	    17.234
   4.960        265.83	    17.861
   4.980        251.67	    17.378
   5.000        300.83	    19.000
   5.020        240.00	    16.971
   5.040        218.33	    16.186
   5.060        235.83	    16.823
   5.080        230.83	    16.643
   5.100        260.83	    17.692
   5.120        210.00	    15.875
   5.140        255.00	    17.493
   5.160        230.83	    16.643
   5.180        222.50	    16.340
   5.200        217.50	    16.155
   5.220        258.33	    17.607
   5.240        248.33	    17.263
   5.260        234.17	    16.763
   5.280        259.17	    17.635
   5.300        228.33	    16.553
   5.320        252.50	    17.407
   5.340        232.50	    16.703
   5.360        235.83	    16.823
   5.380        204.17	    15.652
   5.400        224.17	    16.401
   5.420        225.00	    16.432
   5.440        218.33	    16.186
   5.460        237.50	    16.882
   5.480        224.17	    16.401
   5.500        238.33	    16.912
   5.520        238.33	    16.912
   5.540        214.17	    16.031
   5.560        210.83	    15.906
   5.580        253.33	    17.436
   5.600        223.33	    16.371
   5.620        228.33	    16.553
   5.640        216.67	    16.125
   5.660        208.33	    15.811
   5.680        205.00	    15.684
   5.700        218.33	    16.186
   5.720        221.67	    16.310
   5.740        213.33	    16.000
   5.760        211.67	    15.937
   5.780        202.50	    15.588
   5.800        198.33	    15.427
   5.820        219.17	    16.217
   5.840        209.17	    15.843
   5.860        204.17	    15.652
   5.880        230.00	    16.613
   5.900        230.83	    16.643
   5.920        209.17	    15.843
   5.940        240.83	    17.000
   5.960        225.00	    16.432
   5.980        199.17	    15.460
   6.000        205.00	    15.684
   6.020        237.50	    16.882
   6.040        255.00	    17.493
   6.060        236.67	    16.852
   6.080        250.00	    17.321
   6.100        273.33	    18.111
   6.120        254.17	    17.464
   6.140        226.67	    16.492
   6.160        232.50	    16.703
   6.180        214.17	    16.031
   6.200        215.00	    16.062
   6.220        196.67	    15.362
   6.240        191.67	    15.166
   6.260        192.50	    15.199
   6.280        171.67	    14.353
   6.300        220.83	    16.279
   6.320        210.00	    15.875
   6.340        193.33	    15.232
   6.360        192.50	    15.199
   6.380        186.67	    14.967
   6.400        181.67	    14.765
   6.420        176.67	    14.560
   6.440        177.50	    14.595
   6.460        184.17	    14.866
   6.480        204.17	    15.652
   6.500        189.17	    15.067
   6.520        195.00	    15.297
   6.540        195.83	    15.330
   6.560        189.17	    15.067
   6.580        195.00	    15.297
   6.600        199.17	    15.460
   6.620        171.67	    14.353
   6.640        193.33	    15.232
   6.660        187.50	    15.000
   6.680        160.00	    13.856
   6.700        172.50	    14.387
   6.720        202.50	    15.588
   6.740        196.67	    15.362
   6.760        170.00	    14.283
   6.780        178.33	    14.629
   6.800        185.83	    14.933
   6.820        170.00	    14.283
   6.840        159.17	    13.820
   6.860        185.83	    14.933
   6.880        174.17	    14.457
   6.900        197.50	    15.395
   6.920        180.83	    14.731
   6.940        176.67	    14.560
   6.960        179.17	    14.663
   6.980        175.83	    14.526
   7.000        175.83	    14.526
   7.020        179.17	    14.663
   7.040        178.33	    14.629
   7.060        172.50	    14.387
   7.080        160.00	    13.856
   7.100        160.00	    13.856
   7.120        153.33	    13.565
   7.140        201.67	    15.556
   7.160        174.17	    14.457
   7.180        160.00	    13.856
   7.200        160.83	    13.892
   7.220        152.50	    13.528
   7.240        182.50	    14.799
   7.260        147.50	    13.304
   7.280        175.00	    14.491
   7.300        148.33	    13.342
   7.320        168.33	    14.213
   7.340        175.83	    14.526
   7.360        145.83	    13.229
   7.380        185.83	    14.933
   7.400        160.83	    13.892
   7.420        148.33	    13.342
   7.440        160.83	    13.892
   7.460        160.83	    13.892
   7.480        151.67	    13.491
   7.500        173.33	    14.422
   7.520        155.00	    13.638
   7.540        144.17	    13.153
   7.560        165.83	    14.107
   7.580        161.67	    13.928
   7.600        160.00	    13.856
   7.620        157.50	    13.748
   7.640        155.83	    13.675
   7.660        175.83	    14.526
   7.680        158.33	    13.784
   7.700        164.17	    14.036
   7.720        140.00	    12.961
   7.740        147.50	    13.304
   7.760        155.83	    13.675
   7.780        164.17	    14.036
   7.800        138.33	    12.884
   7.820        148.33	    13.342
   7.840        153.33	    13.565
   7.860        155.83	    13.675
   7.880        145.00	    13.191
   7.900        150.83	    13.454
   7.920        174.17	    14.457
   7.940        135.00	    12.728
   7.960        158.33	    13.784
   7.980        137.50	    12.845
   8.000        145.00	    13.191
   8.020        151.67	    13.491
   8.040        132.50	    12.610
   8.060        154.17	    13.601
   8.080        150.83	    13.454
   8.100        137.50	    12.845
   8.120        138.33	    12.884
   8.140        144.17	    13.153
   8.160        141.67	    13.038
   8.180        145.83	    13.229
   8.200        160.83	    13.892
   8.220        139.17	    12.923
   8.240        165.83	    14.107
   8.260        165.83	    14.107
   8.280        145.83	    13.229
   8.300        155.00	    13.638
   8.320        136.67	    12.806
   8.340        172.50	    14.387
   8.360        155.00	    13.638
   8.380        161.67	    13.928
   8.400        149.17	    13.379
   8.420        135.00	    12.728
   8.440        152.50	    13.528
   8.460        150.00	    13.416
   8.480        176.67	    14.560
   8.500        142.50	    13.077
   8.520        176.67	    14.560
   8.540        158.33	    13.784
   8.560        163.33	    14.000
   8.580        179.17	    14.663
   8.600        175.83	    14.526
   8.620        205.00	    15.684
   8.640        198.33	    15.427
   8.660        199.17	    15.460
   8.680        197.50	    15.395
   8.700        240.83	    17.000
   8.720        259.17	    17.635
   8.740        313.33	    19.391
   8.760        352.50	    20.567
   8.780        385.00	    21.494
   8.800        315.00	    19.442
   8.820        227.50	    16.523
   8.840        166.67	    14.142
   8.860        153.33	    13.565
   8.880        144.17	    13.153
   8.900        156.67	    13.711
   8.920        155.00	    13.638
   8.940        145.00	    13.191
   8.960        121.67	    12.083
   8.980        135.00	    12.728
   9.000        160.00	    13.856
   9.020        142.50	    13.077
   9.040        133.33	    12.649
   9.060        150.00	    13.416
   9.080        145.83	    13.229
   9.100        129.17	    12.450
   9.120        125.00	    12.247
   9.140        136.67	    12.806
   9.160        120.00	    12.000
   9.180        135.00	    12.728
   9.200        115.83	    11.790
   9.220        113.33	    11.662
   9.240        122.50	    12.124
   9.260        125.00	    12.247
   9.280        120.83	    12.042
   9.300        117.50	    11.874
   9.320        131.67	    12.570
   9.340        130.83	    12.530
   9.360        142.50	    13.077
   9.380        131.67	    12.570
   9.400        133.33	    12.649
   9.420        122.50	    12.124
   9.440        111.67	    11.576
   9.460        135.00	    12.728
   9.480        118.33	    11.916
   9.500        125.83	    12.288
   9.520        118.33	    11.916
   9.540        137.50	    12.845
   9.560        118.33	    11.916
   9.580        120.00	    12.000
   9.600        115.83	    11.790
   9.620        133.33	    12.649
   9.640        108.33	    11.402
   9.660        134.17	    12.689
   9.680        115.00	    11.747
   9.700        137.50	    12.845
   9.720        126.67	    12.329
   9.740        126.67	    12.329
   9.760        110.00	    11.489
   9.780        100.00	    10.954
   9.800        115.83	    11.790
   9.820        105.00	    11.225
   9.840        100.83	    11.000
   9.860        120.83	    12.042
   9.880        126.67	    12.329
   9.900        120.83	    12.042
   9.920        111.67	    11.576
   9.940        100.83	    11.000
   9.960        115.00	    11.747
   9.980        115.00	    11.747
  10.000        105.83	    11.269
  10.020        116.67	    11.832
  10.040         93.33	    10.583
  10.060         99.17	    10.909
  10.080        112.50	    11.619
  10.100        121.67	    12.083
  10.120        110.00	    11.489
  10.140        115.00	    11.747
  10.160        112.50	    11.619
  10.180        122.50	    12.124
  10.200        125.83	    12.288
  10.220         94.17	    10.630
  10.240        103.33	    11.136
  10.260        116.67	    11.832
  10.280        122.50	    12.124
  10.300        117.50	    11.874
  10.320        110.00	    11.489
  10.340        135.00	    12.728
  10.360        142.50	    13.077
  10.380        162.50	    13.964
  10.400        185.83	    14.933
  10.420        174.17	    14.457
  10.440        143.33	    13.115
  10.460        139.17	    12.923
  10.480        106.67	    11.314
  10.500        116.67	    11.832
  10.520        110.83	    11.533
  10.540        111.67	    11.576
  10.560         97.50	    10.817
  10.580         95.83	    10.724
  10.600         96.67	    10.770
  10.620        100.83	    11.000
  10.640        110.00	    11.489
  10.660         85.83	    10.149
  10.680        111.67	    11.576
  10.700        100.83	    11.000
  10.720         97.50	    10.817
  10.740         98.33	    10.863
  10.760        107.50	    11.358
  10.780        102.50	    11.091
  10.800        112.50	    11.619
  10.820         98.33	    10.863
  10.840         97.50	    10.817
  10.860        120.83	    12.042
  10.880         95.83	    10.724
  10.900        112.50	    11.619
  10.920         89.17	    10.344
  10.940         99.17	    10.909
  10.960         98.33	    10.863
  10.980         87.50	    10.247
  11.000         96.67	    10.770
  11.020        109.17	    11.446
  11.040         85.00	    10.100
  11.060        100.00	    10.954
  11.080         94.17	    10.630
  11.100        102.50	    11.091
  11.120        109.17	    11.446
  11.140        107.50	    11.358
  11.160         93.33	    10.583
  11.180        106.67	    11.314
  11.200         95.00	    10.677
  11.220         96.67	    10.770
  11.240         90.83	    10.440
  11.260        115.83	    11.790
  11.280        101.67	    11.045
  11.300        111.67	    11.576
  11.320         94.17	    10.630
  11.340         95.83	    10.724
  11.360         98.33	    10.863
  11.380        101.67	    11.045
  11.400         90.83	    10.440
  11.420        100.00	    10.954
  11.440        129.17	    12.450
  11.460        100.00	    10.954
  11.480         92.50	    10.536
  11.500        105.00	    11.225
  11.520         86.67	    10.198
  11.540         91.67	    10.488
  11.560        101.67	    11.045
  11.580        100.00	    10.954
  11.600         98.33	    10.863
  11.620        105.00	    11.225
  11.640        106.67	    11.314
  11.660         90.83	    10.440
  11.680         95.83	    10.724
  11.700        113.33	    11.662
  11.720        111.67	    11.576
  11.740         87.50	    10.247
  11.760         89.17	    10.344
  11.780        102.50	    11.091
  11.800         98.33	    10.863
  11.820         89.17	    10.344
  11.840         89.17	    10.344
  11.860        115.83	    11.790
  11.880        105.83	    11.269
  11.900         98.33	    10.863
  11.920         99.17	    10.909
  11.940        117.50	    11.874
  11.960        130.83	    12.530
  11.980        152.50	    13.528
  12.000        174.17	    14.457
  12.020        195.00	    15.297
  12.040        274.17	    18.138
  12.060        368.33	    21.024
  12.080        421.67	    22.494
  12.100        315.83	    19.468
  12.120        240.83	    17.000
  12.140        165.83	    14.107
  12.160        158.33	    13.784
  12.180        135.83	    12.767
  12.200        147.50	    13.304
  12.220        155.00	    13.638
  12.240        130.83	    12.530
  12.260        158.33	    13.784
  12.280        137.50	    12.845
  12.300        154.17	    13.601
  12.320        152.50	    13.528
  12.340        178.33	    14.629
  12.360        235.83	    16.823
  12.380        230.00	    16.613
  12.400        211.67	    15.937
  12.420        159.17	    13.820
  12.440        128.33	    12.410
  12.460         99.17	    10.909
  12.480        108.33	    11.402
  12.500        105.00	    11.225
  12.520        100.83	    11.000
  12.540         90.00	    10.392
  12.560         90.00	    10.392
  12.580         88.33	    10.296
  12.600         95.83	    10.724
  12.620         71.67	     9.274
  12.640         94.17	    10.630
  12.660         84.17	    10.050
  12.680         92.50	    10.536
  12.700        102.50	    11.091
  12.720         93.33	    10.583
  12.740         86.67	    10.198
  12.760         90.00	    10.392
  12.780         88.33	    10.296
  12.800         74.17	     9.434
  12.820         95.83	    10.724
  12.840         87.50	    10.247
  12.860         76.67	     9.592
  12.880         81.67	     9.899
  12.900         93.33	    10.583
  12.920         77.50	     9.644
  12.940         93.33	    10.583
  12.960         86.67	    10.198
  12.980         75.00	     9.487
  13.000         85.00	    10.100
  13.020         63.33	     8.718
  13.040         78.33	     9.695
  13.060         78.33	     9.695
  13.080         80.83	     9.849
  13.100         93.33	    10.583
  13.120         83.33	    10.000
  13.140         91.67	    10.488
  13.160         95.83	    10.724
  13.180         90.00	    10.392
  13.200         86.67	    10.198
  13.220         84.17	    10.050
  13.240         90.83	    10.440
  13.260         76.67	     9.592
  13.280         75.83	     9.539
  13.300         89.17	    10.344
  13.320         92.50	    10.536
  13.340         64.17	     8.775
  13.360         90.83	    10.440
  13.380         92.50	    10.536
  13.400        103.33	    11.136
  13.420         85.83	    10.149
  13.440         91.67	    10.488
  13.460         79.17	     9.747
  13.480         74.17	     9.434
  13.500         93.33	    10.583
  13.520         75.83	     9.539
  13.540         80.83	     9.849
  13.560         76.67	     9.592
  13.580         89.17	    10.344
  13.600         85.83	    10.149
  13.620         71.67	     9.274
  13.640         95.83	    10.724
  13.660         79.17	     9.747
  13.680         99.17	    10.909
  13.700         87.50	    10.247
  13.720        102.50	    11.091
  13.740        125.00	    12.247
  13.760        100.83	    11.000
  13.780        105.83	    11.269
  13.800        109.17	    11.446
  13.820         88.33	    10.296
  13.840         79.17	     9.747
  13.860         65.83	     8.888
  13.880         81.67	     9.899
  13.900         87.50	    10.247
  13.920         82.50	     9.950
  13.940         69.17	     9.110
  13.960         90.83	    10.440
  13.980         87.50	    10.247
  14.000         81.67	     9.899
  14.020         74.17	     9.434
  14.040         70.00	     9.165
  14.060         83.33	    10.000
  14.080         72.50	     9.327
  14.100         65.00	     8.832
  14.120         83.33	    10.000
  14.140         73.33	     9.381
  14.160         74.17	     9.434
  14.180         62.50	     8.660
  14.200         71.67	     9.274
  14.220         81.67	     9.899
  14.240         85.83	    10.149
  14.260         75.00	     9.487
  14.280         89.17	    10.344
  14.300         79.17	     9.747
  14.320         71.67	     9.274
  14.340         74.17	     9.434
  14.360         90.00	    10.392
  14.380         83.33	    10.000
  14.400         70.00	     9.165
