
Filename:
	C:\Program Files\Thermo Electron\WinXRD\Datafiles\F_HERMAN\GEO\G85_RT.raw

File Created:
	February 20, 2020 - 05:09 AM

Specimen Id:
	G85_RT

Specimen Name:
	

Specimen Description:
	

Comment:
Scan Type: 2Theta Scan
Start Angle: 3 deg.
Stop Angle: 65 deg.
Num Points: 3101
Step Size: 0.02 deg.
Scan Rate: 1.000000
Scan Mode: Continuous
Wavelength: 1.540562
\Kalpha1: 1.540562	\Kalpha2: 1.544390	\Kbeta: 1.392218

Optics:
		Detector:
			 Type: Fixed Slits
		Tube: 
			 Type: Fixed Slits


Datas:
 Pos [deg]       Rate [CPS]      ESD [-]

Range 1 ---> Iteration 1
   3.000        439.17	    22.956
   3.020        465.00	    23.622
   3.040        415.83	    22.338
   3.060        432.50	    22.782
   3.080        399.17	    21.886
   3.100        395.83	    21.794
   3.120        450.83	    23.259
   3.140        405.83	    22.068
   3.160        429.17	    22.694
   3.180        403.33	    22.000
   3.200        455.83	    23.388
   3.220        404.17	    22.023
   3.240        435.00	    22.847
   3.260        388.33	    21.587
   3.280        390.00	    21.633
   3.300        393.33	    21.726
   3.320        440.83	    23.000
   3.340        423.33	    22.539
   3.360        405.83	    22.068
   3.380        375.00	    21.213
   3.400        438.33	    22.935
   3.420        368.33	    21.024
   3.440        432.50	    22.782
   3.460        380.83	    21.378
   3.480        420.00	    22.450
   3.500        417.50	    22.383
   3.520        383.33	    21.448
   3.540        373.33	    21.166
   3.560        367.50	    21.000
   3.580        365.00	    20.928
   3.600        358.33	    20.736
   3.620        387.50	    21.564
   3.640        361.67	    20.833
   3.660        371.67	    21.119
   3.680        364.17	    20.905
   3.700        370.83	    21.095
   3.720        380.83	    21.378
   3.740        360.00	    20.785
   3.760        344.17	    20.322
   3.780        335.00	    20.050
   3.800        311.67	    19.339
   3.820        352.50	    20.567
   3.840        349.17	    20.469
   3.860        345.83	    20.372
   3.880        308.33	    19.235
   3.900        334.17	    20.025
   3.920        333.33	    20.000
   3.940        341.67	    20.248
   3.960        324.17	    19.723
   3.980        359.17	    20.761
   4.000        336.67	    20.100
   4.020        307.50	    19.209
   4.040        310.83	    19.313
   4.060        315.00	    19.442
   4.080        290.00	    18.655
   4.100        310.83	    19.313
   4.120        315.00	    19.442
   4.140        315.00	    19.442
   4.160        299.17	    18.947
   4.180        317.50	    19.519
   4.200        281.67	    18.385
   4.220        324.17	    19.723
   4.240        303.33	    19.079
   4.260        280.00	    18.330
   4.280        267.50	    17.916
   4.300        300.83	    19.000
   4.320        292.50	    18.735
   4.340        326.67	    19.799
   4.360        290.00	    18.655
   4.380        285.00	    18.493
   4.400        305.00	    19.131
   4.420        296.67	    18.868
   4.440        326.67	    19.799
   4.460        285.00	    18.493
   4.480        266.67	    17.889
   4.500        306.67	    19.183
   4.520        258.33	    17.607
   4.540        268.33	    17.944
   4.560        291.67	    18.708
   4.580        280.83	    18.358
   4.600        248.33	    17.263
   4.620        294.17	    18.788
   4.640        242.50	    17.059
   4.660        271.67	    18.055
   4.680        281.67	    18.385
   4.700        230.83	    16.643
   4.720        285.83	    18.520
   4.740        268.33	    17.944
   4.760        268.33	    17.944
   4.780        266.67	    17.889
   4.800        287.50	    18.574
   4.820        285.00	    18.493
   4.840        235.83	    16.823
   4.860        264.17	    17.804
   4.880        259.17	    17.635
   4.900        267.50	    17.916
   4.920        240.83	    17.000
   4.940        268.33	    17.944
   4.960        252.50	    17.407
   4.980        239.17	    16.941
   5.000        242.50	    17.059
   5.020        239.17	    16.941
   5.040        237.50	    16.882
   5.060        220.00	    16.248
   5.080        235.00	    16.793
   5.100        230.83	    16.643
   5.120        231.67	    16.673
   5.140        250.00	    17.321
   5.160        217.50	    16.155
   5.180        237.50	    16.882
   5.200        240.83	    17.000
   5.220        225.00	    16.432
   5.240        244.17	    17.117
   5.260        226.67	    16.492
   5.280        220.83	    16.279
   5.300        218.33	    16.186
   5.320        222.50	    16.340
   5.340        225.00	    16.432
   5.360        232.50	    16.703
   5.380        239.17	    16.941
   5.400        240.83	    17.000
   5.420        234.17	    16.763
   5.440        265.00	    17.833
   5.460        254.17	    17.464
   5.480        285.83	    18.520
   5.500        240.83	    17.000
   5.520        200.83	    15.524
   5.540        189.17	    15.067
   5.560        194.17	    15.264
   5.580        226.67	    16.492
   5.600        220.00	    16.248
   5.620        209.17	    15.843
   5.640        230.00	    16.613
   5.660        210.00	    15.875
   5.680        220.83	    16.279
   5.700        245.00	    17.146
   5.720        245.83	    17.176
   5.740        205.00	    15.684
   5.760        226.67	    16.492
   5.780        204.17	    15.652
   5.800        238.33	    16.912
   5.820        225.83	    16.462
   5.840        215.83	    16.093
   5.860        221.67	    16.310
   5.880        240.83	    17.000
   5.900        258.33	    17.607
   5.920        255.83	    17.521
   5.940        269.17	    17.972
   5.960        265.83	    17.861
   5.980        235.83	    16.823
   6.000        256.67	    17.550
   6.020        278.33	    18.276
   6.040        295.83	    18.841
   6.060        271.67	    18.055
   6.080        276.67	    18.221
   6.100        263.33	    17.776
   6.120        310.83	    19.313
   6.140        370.83	    21.095
   6.160        324.17	    19.723
   6.180        317.50	    19.519
   6.200        235.83	    16.823
   6.220        231.67	    16.673
   6.240        215.00	    16.062
   6.260        205.83	    15.716
   6.280        220.83	    16.279
   6.300        210.00	    15.875
   6.320        215.00	    16.062
   6.340        179.17	    14.663
   6.360        199.17	    15.460
   6.380        199.17	    15.460
   6.400        205.00	    15.684
   6.420        213.33	    16.000
   6.440        210.00	    15.875
   6.460        173.33	    14.422
   6.480        190.83	    15.133
   6.500        175.83	    14.526
   6.520        212.50	    15.969
   6.540        194.17	    15.264
   6.560        189.17	    15.067
   6.580        191.67	    15.166
   6.600        203.33	    15.620
   6.620        200.00	    15.492
   6.640        171.67	    14.353
   6.660        189.17	    15.067
   6.680        185.83	    14.933
   6.700        210.00	    15.875
   6.720        185.83	    14.933
   6.740        198.33	    15.427
   6.760        172.50	    14.387
   6.780        177.50	    14.595
   6.800        190.00	    15.100
   6.820        206.67	    15.748
   6.840        192.50	    15.199
   6.860        213.33	    16.000
   6.880        156.67	    13.711
   6.900        150.00	    13.416
   6.920        180.83	    14.731
   6.940        174.17	    14.457
   6.960        174.17	    14.457
   6.980        166.67	    14.142
   7.000        173.33	    14.422
   7.020        168.33	    14.213
   7.040        166.67	    14.142
   7.060        168.33	    14.213
   7.080        157.50	    13.748
   7.100        164.17	    14.036
   7.120        160.00	    13.856
   7.140        178.33	    14.629
   7.160        172.50	    14.387
   7.180        187.50	    15.000
   7.200        154.17	    13.601
   7.220        146.67	    13.266
   7.240        151.67	    13.491
   7.260        185.83	    14.933
   7.280        171.67	    14.353
   7.300        171.67	    14.353
   7.320        187.50	    15.000
   7.340        138.33	    12.884
   7.360        152.50	    13.528
   7.380        167.50	    14.177
   7.400        157.50	    13.748
   7.420        160.83	    13.892
   7.440        163.33	    14.000
   7.460        158.33	    13.784
   7.480        183.33	    14.832
   7.500        160.83	    13.892
   7.520        146.67	    13.266
   7.540        141.67	    13.038
   7.560        158.33	    13.784
   7.580        142.50	    13.077
   7.600        153.33	    13.565
   7.620        160.00	    13.856
   7.640        146.67	    13.266
   7.660        160.00	    13.856
   7.680        163.33	    14.000
   7.700        155.00	    13.638
   7.720        145.00	    13.191
   7.740        172.50	    14.387
   7.760        158.33	    13.784
   7.780        156.67	    13.711
   7.800        163.33	    14.000
   7.820        140.83	    13.000
   7.840        157.50	    13.748
   7.860        150.83	    13.454
   7.880        152.50	    13.528
   7.900        140.83	    13.000
   7.920        165.83	    14.107
   7.940        160.83	    13.892
   7.960        138.33	    12.884
   7.980        144.17	    13.153
   8.000        134.17	    12.689
   8.020        151.67	    13.491
   8.040        164.17	    14.036
   8.060        142.50	    13.077
   8.080        147.50	    13.304
   8.100        160.83	    13.892
   8.120        146.67	    13.266
   8.140        146.67	    13.266
   8.160        153.33	    13.565
   8.180        144.17	    13.153
   8.200        132.50	    12.610
   8.220        133.33	    12.649
   8.240        164.17	    14.036
   8.260        168.33	    14.213
   8.280        157.50	    13.748
   8.300        149.17	    13.379
   8.320        170.83	    14.318
   8.340        175.00	    14.491
   8.360        154.17	    13.601
   8.380        156.67	    13.711
   8.400        170.00	    14.283
   8.420        142.50	    13.077
   8.440        160.00	    13.856
   8.460        159.17	    13.820
   8.480        175.00	    14.491
   8.500        173.33	    14.422
   8.520        172.50	    14.387
   8.540        190.83	    15.133
   8.560        213.33	    16.000
   8.580        194.17	    15.264
   8.600        214.17	    16.031
   8.620        212.50	    15.969
   8.640        254.17	    17.464
   8.660        262.50	    17.748
   8.680        297.50	    18.894
   8.700        343.33	    20.298
   8.720        393.33	    21.726
   8.740        528.33	    25.179
   8.760        782.50	    30.643
   8.780        901.67	    32.894
   8.800        798.33	    30.952
   8.820        549.17	    25.671
   8.840        325.00	    19.748
   8.860        195.00	    15.297
   8.880        165.00	    14.071
   8.900        161.67	    13.928
   8.920        179.17	    14.663
   8.940        183.33	    14.832
   8.960        170.83	    14.318
   8.980        154.17	    13.601
   9.000        160.00	    13.856
   9.020        145.00	    13.191
   9.040        135.83	    12.767
   9.060        142.50	    13.077
   9.080        169.17	    14.248
   9.100        172.50	    14.387
   9.120        163.33	    14.000
   9.140        145.00	    13.191
   9.160        150.83	    13.454
   9.180        128.33	    12.410
   9.200        131.67	    12.570
   9.220        145.83	    13.229
   9.240        139.17	    12.923
   9.260        136.67	    12.806
   9.280        142.50	    13.077
   9.300        144.17	    13.153
   9.320        125.83	    12.288
   9.340        133.33	    12.649
   9.360        135.00	    12.728
   9.380        146.67	    13.266
   9.400        140.83	    13.000
   9.420        143.33	    13.115
   9.440        130.83	    12.530
   9.460        130.83	    12.530
   9.480        129.17	    12.450
   9.500        127.50	    12.369
   9.520        120.83	    12.042
   9.540        132.50	    12.610
   9.560        119.17	    11.958
   9.580        125.00	    12.247
   9.600        120.00	    12.000
   9.620        115.00	    11.747
   9.640        102.50	    11.091
   9.660        117.50	    11.874
   9.680        120.00	    12.000
   9.700        121.67	    12.083
   9.720         95.00	    10.677
   9.740        105.00	    11.225
   9.760        113.33	    11.662
   9.780        108.33	    11.402
   9.800        128.33	    12.410
   9.820        108.33	    11.402
   9.840         92.50	    10.536
   9.860        103.33	    11.136
   9.880         94.17	    10.630
   9.900        121.67	    12.083
   9.920        105.83	    11.269
   9.940        109.17	    11.446
   9.960         98.33	    10.863
   9.980        105.00	    11.225
  10.000        119.17	    11.958
  10.020         96.67	    10.770
  10.040        105.00	    11.225
  10.060        110.83	    11.533
  10.080        116.67	    11.832
  10.100        116.67	    11.832
  10.120        111.67	    11.576
  10.140        126.67	    12.329
  10.160        107.50	    11.358
  10.180        120.83	    12.042
  10.200        109.17	    11.446
  10.220        118.33	    11.916
  10.240        112.50	    11.619
  10.260        117.50	    11.874
  10.280        102.50	    11.091
  10.300        110.83	    11.533
  10.320        113.33	    11.662
  10.340         95.00	    10.677
  10.360         98.33	    10.863
  10.380        120.83	    12.042
  10.400        140.00	    12.961
  10.420        160.00	    13.856
  10.440        154.17	    13.601
  10.460        150.83	    13.454
  10.480        135.00	    12.728
  10.500        122.50	    12.124
  10.520        120.83	    12.042
  10.540        109.17	    11.446
  10.560        112.50	    11.619
  10.580         90.00	    10.392
  10.600        103.33	    11.136
  10.620        100.00	    10.954
  10.640         87.50	    10.247
  10.660         86.67	    10.198
  10.680        106.67	    11.314
  10.700        102.50	    11.091
  10.720        105.83	    11.269
  10.740         98.33	    10.863
  10.760         97.50	    10.817
  10.780         99.17	    10.909
  10.800        118.33	    11.916
  10.820        110.00	    11.489
  10.840         99.17	    10.909
  10.860        112.50	    11.619
  10.880        102.50	    11.091
  10.900         88.33	    10.296
  10.920        116.67	    11.832
  10.940        102.50	    11.091
  10.960         80.83	     9.849
  10.980         83.33	    10.000
  11.000        116.67	    11.832
  11.020        102.50	    11.091
  11.040        100.00	    10.954
  11.060        105.00	    11.225
  11.080         93.33	    10.583
  11.100        102.50	    11.091
  11.120        116.67	    11.832
  11.140        114.17	    11.705
  11.160         94.17	    10.630
  11.180        100.83	    11.000
  11.200         95.83	    10.724
  11.220        110.00	    11.489
  11.240         95.83	    10.724
  11.260         90.83	    10.440
  11.280        123.33	    12.166
  11.300        105.83	    11.269
  11.320         95.83	    10.724
  11.340         96.67	    10.770
  11.360         98.33	    10.863
  11.380        102.50	    11.091
  11.400         93.33	    10.583
  11.420         88.33	    10.296
  11.440        106.67	    11.314
  11.460        110.83	    11.533
  11.480        110.83	    11.533
  11.500        100.83	    11.000
  11.520         95.83	    10.724
  11.540         91.67	    10.488
  11.560        103.33	    11.136
  11.580        101.67	    11.045
  11.600        118.33	    11.916
  11.620        106.67	    11.314
  11.640         94.17	    10.630
  11.660        100.00	    10.954
  11.680         92.50	    10.536
  11.700        104.17	    11.180
  11.720        105.00	    11.225
  11.740         90.00	    10.392
  11.760        109.17	    11.446
  11.780         82.50	     9.950
  11.800        108.33	    11.402
  11.820         90.83	    10.440
  11.840         97.50	    10.817
  11.860        105.00	    11.225
  11.880        110.00	    11.489
  11.900        102.50	    11.091
  11.920        101.67	    11.045
  11.940        125.83	    12.288
  11.960        117.50	    11.874
  11.980        138.33	    12.884
  12.000        130.83	    12.530
  12.020        165.00	    14.071
  12.040        166.67	    14.142
  12.060        182.50	    14.799
  12.080        202.50	    15.588
  12.100        228.33	    16.553
  12.120        205.83	    15.716
  12.140        155.00	    13.638
  12.160        153.33	    13.565
  12.180        133.33	    12.649
  12.200        170.00	    14.283
  12.220        163.33	    14.000
  12.240        175.83	    14.526
  12.260        205.00	    15.684
  12.280        181.67	    14.765
  12.300        175.83	    14.526
  12.320        165.00	    14.071
  12.340        185.00	    14.900
  12.360        249.17	    17.292
  12.380        368.33	    21.024
  12.400        387.50	    21.564
  12.420        417.50	    22.383
  12.440        299.17	    18.947
  12.460        176.67	    14.560
  12.480        142.50	    13.077
  12.500         95.83	    10.724
  12.520        106.67	    11.314
  12.540         99.17	    10.909
  12.560        114.17	    11.705
  12.580         99.17	    10.909
  12.600         90.83	    10.440
  12.620         93.33	    10.583
  12.640         98.33	    10.863
  12.660         78.33	     9.695
  12.680         95.83	    10.724
  12.700        103.33	    11.136
  12.720         86.67	    10.198
  12.740         94.17	    10.630
  12.760         90.00	    10.392
  12.780         91.67	    10.488
  12.800         95.83	    10.724
  12.820         87.50	    10.247
  12.840         73.33	     9.381
  12.860         97.50	    10.817
  12.880         86.67	    10.198
  12.900         81.67	     9.899
  12.920         86.67	    10.198
  12.940        105.83	    11.269
  12.960         77.50	     9.644
  12.980         82.50	     9.950
  13.000         74.17	     9.434
  13.020         64.17	     8.775
  13.040         63.33	     8.718
  13.060         75.83	     9.539
  13.080         75.83	     9.539
  13.100         96.67	    10.770
  13.120         85.00	    10.100
  13.140         80.83	     9.849
  13.160         91.67	    10.488
  13.180        104.17	    11.180
  13.200         97.50	    10.817
  13.220         85.83	    10.149
  13.240         83.33	    10.000
  13.260         80.00	     9.798
  13.280         79.17	     9.747
  13.300         85.83	    10.149
  13.320         95.00	    10.677
  13.340         67.50	     9.000
  13.360         84.17	    10.050
  13.380         90.00	    10.392
  13.400         73.33	     9.381
  13.420         86.67	    10.198
  13.440         97.50	    10.817
  13.460         62.50	     8.660
  13.480         94.17	    10.630
  13.500         84.17	    10.050
  13.520         82.50	     9.950
  13.540         86.67	    10.198
  13.560         97.50	    10.817
  13.580         85.00	    10.100
  13.600         84.17	    10.050
  13.620         70.83	     9.220
  13.640         90.00	    10.392
  13.660         86.67	    10.198
  13.680         77.50	     9.644
  13.700         83.33	    10.000
  13.720         99.17	    10.909
  13.740        100.83	    11.000
  13.760        122.50	    12.124
  13.780         88.33	    10.296
  13.800         88.33	    10.296
  13.820        105.00	    11.225
  13.840         94.17	    10.630
  13.860         80.00	     9.798
  13.880         84.17	    10.050
  13.900         85.00	    10.100
  13.920         80.00	     9.798
  13.940         94.17	    10.630
  13.960         89.17	    10.344
  13.980         83.33	    10.000
  14.000         81.67	     9.899
  14.020         80.00	     9.798
  14.040         80.83	     9.849
  14.060         60.00	     8.485
  14.080         79.17	     9.747
  14.100         80.83	     9.849
  14.120         80.00	     9.798
  14.140         88.33	    10.296
  14.160         80.00	     9.798
  14.180         84.17	    10.050
  14.200         75.83	     9.539
  14.220         60.83	     8.544
  14.240         86.67	    10.198
  14.260         71.67	     9.274
  14.280         70.83	     9.220
  14.300         85.00	    10.100
  14.320         75.00	     9.487
  14.340         72.50	     9.327
  14.360         62.50	     8.660
  14.380         74.17	     9.434
  14.400         78.33	     9.695
