
Filename:
	C:\Program Files\Thermo Electron\WinXRD\Datafiles\F_HERMAN\GEO\G88_RT.raw

File Created:
	February 21, 2020 - 11:44 PM

Specimen Id:
	G88_RT

Specimen Name:
	

Specimen Description:
	

Comment:
Scan Type: 2Theta Scan
Start Angle: 3 deg.
Stop Angle: 65 deg.
Num Points: 3101
Step Size: 0.02 deg.
Scan Rate: 1.000000
Scan Mode: Continuous
Wavelength: 1.540562
\Kalpha1: 1.540562	\Kalpha2: 1.544390	\Kbeta: 1.392218

Optics:
		Detector:
			 Type: Fixed Slits
		Tube: 
			 Type: Fixed Slits


Datas:
 Pos [deg]       Rate [CPS]      ESD [-]

Range 1 ---> Iteration 1
   3.000        441.67	    23.022
   3.020        421.67	    22.494
   3.040        430.00	    22.716
   3.060        426.67	    22.627
   3.080        429.17	    22.694
   3.100        450.00	    23.238
   3.120        416.67	    22.361
   3.140        425.00	    22.583
   3.160        399.17	    21.886
   3.180        415.83	    22.338
   3.200        399.17	    21.886
   3.220        421.67	    22.494
   3.240        410.00	    22.181
   3.260        406.67	    22.091
   3.280        410.00	    22.181
   3.300        398.33	    21.863
   3.320        390.83	    21.656
   3.340        354.17	    20.616
   3.360        380.00	    21.354
   3.380        365.00	    20.928
   3.400        386.67	    21.541
   3.420        401.67	    21.954
   3.440        355.83	    20.664
   3.460        385.00	    21.494
   3.480        374.17	    21.190
   3.500        342.50	    20.273
   3.520        344.17	    20.322
   3.540        322.50	    19.672
   3.560        350.83	    20.518
   3.580        355.83	    20.664
   3.600        363.33	    20.881
   3.620        329.17	    19.875
   3.640        330.83	    19.925
   3.660        329.17	    19.875
   3.680        374.17	    21.190
   3.700        337.50	    20.125
   3.720        355.00	    20.640
   3.740        360.00	    20.785
   3.760        345.83	    20.372
   3.780        338.33	    20.149
   3.800        340.00	    20.199
   3.820        359.17	    20.761
   3.840        343.33	    20.298
   3.860        325.00	    19.748
   3.880        340.83	    20.224
   3.900        328.33	    19.849
   3.920        329.17	    19.875
   3.940        317.50	    19.519
   3.960        321.67	    19.647
   3.980        310.83	    19.313
   4.000        303.33	    19.079
   4.020        302.50	    19.053
   4.040        318.33	    19.545
   4.060        335.00	    20.050
   4.080        342.50	    20.273
   4.100        301.67	    19.026
   4.120        313.33	    19.391
   4.140        304.17	    19.105
   4.160        279.17	    18.303
   4.180        312.50	    19.365
   4.200        299.17	    18.947
   4.220        262.50	    17.748
   4.240        276.67	    18.221
   4.260        298.33	    18.921
   4.280        280.00	    18.330
   4.300        277.50	    18.248
   4.320        271.67	    18.055
   4.340        291.67	    18.708
   4.360        290.00	    18.655
   4.380        307.50	    19.209
   4.400        276.67	    18.221
   4.420        285.00	    18.493
   4.440        267.50	    17.916
   4.460        287.50	    18.574
   4.480        265.83	    17.861
   4.500        295.83	    18.841
   4.520        280.00	    18.330
   4.540        287.50	    18.574
   4.560        264.17	    17.804
   4.580        276.67	    18.221
   4.600        257.50	    17.578
   4.620        306.67	    19.183
   4.640        248.33	    17.263
   4.660        240.00	    16.971
   4.680        264.17	    17.804
   4.700        272.50	    18.083
   4.720        266.67	    17.889
   4.740        250.83	    17.349
   4.760        241.67	    17.029
   4.780        266.67	    17.889
   4.800        247.50	    17.234
   4.820        250.83	    17.349
   4.840        278.33	    18.276
   4.860        250.00	    17.321
   4.880        236.67	    16.852
   4.900        244.17	    17.117
   4.920        259.17	    17.635
   4.940        230.00	    16.613
   4.960        231.67	    16.673
   4.980        257.50	    17.578
   5.000        251.67	    17.378
   5.020        252.50	    17.407
   5.040        252.50	    17.407
   5.060        232.50	    16.703
   5.080        221.67	    16.310
   5.100        248.33	    17.263
   5.120        244.17	    17.117
   5.140        239.17	    16.941
   5.160        232.50	    16.703
   5.180        229.17	    16.583
   5.200        223.33	    16.371
   5.220        228.33	    16.553
   5.240        218.33	    16.186
   5.260        221.67	    16.310
   5.280        230.00	    16.613
   5.300        256.67	    17.550
   5.320        205.83	    15.716
   5.340        207.50	    15.780
   5.360        221.67	    16.310
   5.380        211.67	    15.937
   5.400        233.33	    16.733
   5.420        207.50	    15.780
   5.440        218.33	    16.186
   5.460        241.67	    17.029
   5.480        219.17	    16.217
   5.500        217.50	    16.155
   5.520        206.67	    15.748
   5.540        228.33	    16.553
   5.560        238.33	    16.912
   5.580        220.83	    16.279
   5.600        214.17	    16.031
   5.620        210.00	    15.875
   5.640        195.83	    15.330
   5.660        219.17	    16.217
   5.680        189.17	    15.067
   5.700        204.17	    15.652
   5.720        231.67	    16.673
   5.740        200.83	    15.524
   5.760        185.83	    14.933
   5.780        209.17	    15.843
   5.800        215.83	    16.093
   5.820        185.83	    14.933
   5.840        192.50	    15.199
   5.860        190.00	    15.100
   5.880        212.50	    15.969
   5.900        219.17	    16.217
   5.920        192.50	    15.199
   5.940        206.67	    15.748
   5.960        192.50	    15.199
   5.980        205.83	    15.716
   6.000        196.67	    15.362
   6.020        188.33	    15.033
   6.040        195.83	    15.330
   6.060        208.33	    15.811
   6.080        225.83	    16.462
   6.100        221.67	    16.310
   6.120        226.67	    16.492
   6.140        235.00	    16.793
   6.160        210.83	    15.906
   6.180        202.50	    15.588
   6.200        204.17	    15.652
   6.220        225.83	    16.462
   6.240        199.17	    15.460
   6.260        209.17	    15.843
   6.280        233.33	    16.733
   6.300        185.00	    14.900
   6.320        186.67	    14.967
   6.340        201.67	    15.556
   6.360        195.83	    15.330
   6.380        188.33	    15.033
   6.400        165.00	    14.071
   6.420        213.33	    16.000
   6.440        180.83	    14.731
   6.460        203.33	    15.620
   6.480        182.50	    14.799
   6.500        195.83	    15.330
   6.520        186.67	    14.967
   6.540        180.00	    14.697
   6.560        181.67	    14.765
   6.580        186.67	    14.967
   6.600        194.17	    15.264
   6.620        180.00	    14.697
   6.640        175.83	    14.526
   6.660        166.67	    14.142
   6.680        194.17	    15.264
   6.700        180.00	    14.697
   6.720        191.67	    15.166
   6.740        175.83	    14.526
   6.760        170.83	    14.318
   6.780        178.33	    14.629
   6.800        179.17	    14.663
   6.820        202.50	    15.588
   6.840        170.00	    14.283
   6.860        145.00	    13.191
   6.880        190.00	    15.100
   6.900        170.83	    14.318
   6.920        185.00	    14.900
   6.940        186.67	    14.967
   6.960        168.33	    14.213
   6.980        155.00	    13.638
   7.000        172.50	    14.387
   7.020        167.50	    14.177
   7.040        164.17	    14.036
   7.060        160.83	    13.892
   7.080        153.33	    13.565
   7.100        177.50	    14.595
   7.120        164.17	    14.036
   7.140        174.17	    14.457
   7.160        147.50	    13.304
   7.180        171.67	    14.353
   7.200        185.83	    14.933
   7.220        171.67	    14.353
   7.240        177.50	    14.595
   7.260        158.33	    13.784
   7.280        160.83	    13.892
   7.300        170.00	    14.283
   7.320        180.00	    14.697
   7.340        162.50	    13.964
   7.360        162.50	    13.964
   7.380        152.50	    13.528
   7.400        155.00	    13.638
   7.420        150.00	    13.416
   7.440        169.17	    14.248
   7.460        148.33	    13.342
   7.480        148.33	    13.342
   7.500        129.17	    12.450
   7.520        157.50	    13.748
   7.540        157.50	    13.748
   7.560        172.50	    14.387
   7.580        148.33	    13.342
   7.600        160.83	    13.892
   7.620        151.67	    13.491
   7.640        135.83	    12.767
   7.660        150.83	    13.454
   7.680        168.33	    14.213
   7.700        150.00	    13.416
   7.720        149.17	    13.379
   7.740        139.17	    12.923
   7.760        155.83	    13.675
   7.780        158.33	    13.784
   7.800        145.00	    13.191
   7.820        143.33	    13.115
   7.840        148.33	    13.342
   7.860        136.67	    12.806
   7.880        158.33	    13.784
   7.900        149.17	    13.379
   7.920        162.50	    13.964
   7.940        146.67	    13.266
   7.960        163.33	    14.000
   7.980        152.50	    13.528
   8.000        126.67	    12.329
   8.020        132.50	    12.610
   8.040        141.67	    13.038
   8.060        149.17	    13.379
   8.080        125.83	    12.288
   8.100        154.17	    13.601
   8.120        130.00	    12.490
   8.140        150.83	    13.454
   8.160        149.17	    13.379
   8.180        144.17	    13.153
   8.200        136.67	    12.806
   8.220        136.67	    12.806
   8.240        146.67	    13.266
   8.260        122.50	    12.124
   8.280        137.50	    12.845
   8.300        145.83	    13.229
   8.320        139.17	    12.923
   8.340        148.33	    13.342
   8.360        157.50	    13.748
   8.380        156.67	    13.711
   8.400        151.67	    13.491
   8.420        145.00	    13.191
   8.440        120.83	    12.042
   8.460        135.83	    12.767
   8.480        147.50	    13.304
   8.500        140.83	    13.000
   8.520        141.67	    13.038
   8.540        125.83	    12.288
   8.560        146.67	    13.266
   8.580        168.33	    14.213
   8.600        149.17	    13.379
   8.620        147.50	    13.304
   8.640        156.67	    13.711
   8.660        148.33	    13.342
   8.680        155.83	    13.675
   8.700        172.50	    14.387
   8.720        181.67	    14.765
   8.740        189.17	    15.067
   8.760        207.50	    15.780
   8.780        245.00	    17.146
   8.800        290.00	    18.655
   8.820        290.00	    18.655
   8.840        244.17	    17.117
   8.860        208.33	    15.811
   8.880        159.17	    13.820
   8.900        153.33	    13.565
   8.920        142.50	    13.077
   8.940        125.00	    12.247
   8.960        124.17	    12.207
   8.980        115.83	    11.790
   9.000        135.83	    12.767
   9.020        125.00	    12.247
   9.040        135.00	    12.728
   9.060        130.00	    12.490
   9.080        112.50	    11.619
   9.100        129.17	    12.450
   9.120        141.67	    13.038
   9.140        120.00	    12.000
   9.160        130.83	    12.530
   9.180        122.50	    12.124
   9.200        139.17	    12.923
   9.220        125.83	    12.288
   9.240        132.50	    12.610
   9.260        123.33	    12.166
   9.280        126.67	    12.329
   9.300        110.00	    11.489
   9.320        126.67	    12.329
   9.340        125.00	    12.247
   9.360        160.83	    13.892
   9.380        136.67	    12.806
   9.400        105.00	    11.225
   9.420        116.67	    11.832
   9.440        131.67	    12.570
   9.460        145.00	    13.191
   9.480        120.83	    12.042
   9.500        117.50	    11.874
   9.520        118.33	    11.916
   9.540        124.17	    12.207
   9.560        124.17	    12.207
   9.580        110.00	    11.489
   9.600        117.50	    11.874
   9.620        115.83	    11.790
   9.640        101.67	    11.045
   9.660        102.50	    11.091
   9.680        133.33	    12.649
   9.700        124.17	    12.207
   9.720        128.33	    12.410
   9.740        133.33	    12.649
   9.760        107.50	    11.358
   9.780        126.67	    12.329
   9.800        136.67	    12.806
   9.820        109.17	    11.446
   9.840        102.50	    11.091
   9.860        106.67	    11.314
   9.880        135.00	    12.728
   9.900        115.00	    11.747
   9.920        126.67	    12.329
   9.940        119.17	    11.958
   9.960        112.50	    11.619
   9.980        107.50	    11.358
  10.000        110.83	    11.533
  10.020        118.33	    11.916
  10.040         93.33	    10.583
  10.060         94.17	    10.630
  10.080        115.83	    11.790
  10.100        114.17	    11.705
  10.120        113.33	    11.662
  10.140        122.50	    12.124
  10.160        114.17	    11.705
  10.180        121.67	    12.083
  10.200        111.67	    11.576
  10.220         97.50	    10.817
  10.240        110.83	    11.533
  10.260        100.00	    10.954
  10.280        115.83	    11.790
  10.300        110.00	    11.489
  10.320        114.17	    11.705
  10.340        112.50	    11.619
  10.360        113.33	    11.662
  10.380        109.17	    11.446
  10.400         99.17	    10.909
  10.420        107.50	    11.358
  10.440        116.67	    11.832
  10.460        116.67	    11.832
  10.480        124.17	    12.207
  10.500        110.83	    11.533
  10.520        123.33	    12.166
  10.540        120.00	    12.000
  10.560        113.33	    11.662
  10.580         99.17	    10.909
  10.600        117.50	    11.874
  10.620        120.00	    12.000
  10.640        105.00	    11.225
  10.660        123.33	    12.166
  10.680        121.67	    12.083
  10.700        101.67	    11.045
  10.720         95.00	    10.677
  10.740        100.00	    10.954
  10.760        106.67	    11.314
  10.780        100.83	    11.000
  10.800        117.50	    11.874
  10.820        115.83	    11.790
  10.840        105.00	    11.225
  10.860        103.33	    11.136
  10.880         94.17	    10.630
  10.900        110.00	    11.489
  10.920        105.83	    11.269
  10.940         85.83	    10.149
  10.960        113.33	    11.662
  10.980        118.33	    11.916
  11.000        120.83	    12.042
  11.020        123.33	    12.166
  11.040        100.83	    11.000
  11.060         95.00	    10.677
  11.080        122.50	    12.124
  11.100        103.33	    11.136
  11.120         94.17	    10.630
  11.140        103.33	    11.136
  11.160         93.33	    10.583
  11.180        104.17	    11.180
  11.200        104.17	    11.180
  11.220         99.17	    10.909
  11.240        107.50	    11.358
  11.260         97.50	    10.817
  11.280         90.00	    10.392
  11.300        113.33	    11.662
  11.320        108.33	    11.402
  11.340         93.33	    10.583
  11.360        108.33	    11.402
  11.380        105.00	    11.225
  11.400        109.17	    11.446
  11.420        103.33	    11.136
  11.440         95.00	    10.677
  11.460        103.33	    11.136
  11.480         81.67	     9.899
  11.500        102.50	    11.091
  11.520         81.67	     9.899
  11.540         93.33	    10.583
  11.560         98.33	    10.863
  11.580        108.33	    11.402
  11.600         98.33	    10.863
  11.620         93.33	    10.583
  11.640        100.00	    10.954
  11.660         99.17	    10.909
  11.680         90.00	    10.392
  11.700         98.33	    10.863
  11.720         86.67	    10.198
  11.740        102.50	    11.091
  11.760         99.17	    10.909
  11.780        122.50	    12.124
  11.800        105.83	    11.269
  11.820         97.50	    10.817
  11.840        102.50	    11.091
  11.860        105.00	    11.225
  11.880        107.50	    11.358
  11.900         86.67	    10.198
  11.920        110.83	    11.533
  11.940        106.67	    11.314
  11.960        110.83	    11.533
  11.980        113.33	    11.662
  12.000        113.33	    11.662
  12.020        110.00	    11.489
  12.040        145.00	    13.191
  12.060        159.17	    13.820
  12.080        205.83	    15.716
  12.100        223.33	    16.371
  12.120        260.83	    17.692
  12.140        263.33	    17.776
  12.160        164.17	    14.036
  12.180        166.67	    14.142
  12.200        131.67	    12.570
  12.220        119.17	    11.958
  12.240        120.00	    12.000
  12.260        133.33	    12.649
  12.280        125.83	    12.288
  12.300        118.33	    11.916
  12.320        120.83	    12.042
  12.340        131.67	    12.570
  12.360        125.83	    12.288
  12.380        142.50	    13.077
  12.400        190.00	    15.100
  12.420        195.83	    15.330
  12.440        160.83	    13.892
  12.460        171.67	    14.353
  12.480        124.17	    12.207
  12.500        123.33	    12.166
  12.520         90.83	    10.440
  12.540         93.33	    10.583
  12.560         97.50	    10.817
  12.580         91.67	    10.488
  12.600        100.83	    11.000
  12.620         84.17	    10.050
  12.640        105.00	    11.225
  12.660         96.67	    10.770
  12.680         89.17	    10.344
  12.700        108.33	    11.402
  12.720         89.17	    10.344
  12.740         75.00	     9.487
  12.760        100.83	    11.000
  12.780         95.00	    10.677
  12.800         90.83	    10.440
  12.820         94.17	    10.630
  12.840         80.00	     9.798
  12.860         93.33	    10.583
  12.880         85.83	    10.149
  12.900         90.83	    10.440
  12.920         80.83	     9.849
  12.940         93.33	    10.583
  12.960         70.83	     9.220
  12.980         90.00	    10.392
  13.000         99.17	    10.909
  13.020         86.67	    10.198
  13.040         84.17	    10.050
  13.060         75.83	     9.539
  13.080         94.17	    10.630
  13.100         91.67	    10.488
  13.120         90.83	    10.440
  13.140        105.83	    11.269
  13.160         75.00	     9.487
  13.180        102.50	    11.091
  13.200         88.33	    10.296
  13.220         82.50	     9.950
  13.240         87.50	    10.247
  13.260         81.67	     9.899
  13.280         89.17	    10.344
  13.300         88.33	    10.296
  13.320         89.17	    10.344
  13.340         70.83	     9.220
  13.360         88.33	    10.296
  13.380         74.17	     9.434
  13.400         85.83	    10.149
  13.420         96.67	    10.770
  13.440         92.50	    10.536
  13.460         90.83	    10.440
  13.480         81.67	     9.899
  13.500         84.17	    10.050
  13.520         83.33	    10.000
  13.540         91.67	    10.488
  13.560         79.17	     9.747
  13.580         95.00	    10.677
  13.600         96.67	    10.770
  13.620        102.50	    11.091
  13.640         94.17	    10.630
  13.660         72.50	     9.327
  13.680         81.67	     9.899
  13.700         90.83	    10.440
  13.720         92.50	    10.536
  13.740        109.17	    11.446
  13.760        111.67	    11.576
  13.780        105.83	    11.269
  13.800        113.33	    11.662
  13.820         89.17	    10.344
  13.840         92.50	    10.536
  13.860         90.83	    10.440
  13.880         91.67	    10.488
  13.900         82.50	     9.950
  13.920         86.67	    10.198
  13.940         74.17	     9.434
  13.960         75.83	     9.539
  13.980         78.33	     9.695
  14.000         88.33	    10.296
  14.020         70.00	     9.165
  14.040         92.50	    10.536
  14.060         78.33	     9.695
  14.080         86.67	    10.198
  14.100         87.50	    10.247
  14.120         69.17	     9.110
  14.140         70.83	     9.220
  14.160         82.50	     9.950
  14.180         75.83	     9.539
  14.200         74.17	     9.434
  14.220         80.83	     9.849
  14.240         69.17	     9.110
  14.260         72.50	     9.327
  14.280         80.00	     9.798
  14.300         75.83	     9.539
  14.320         79.17	     9.747
  14.340         87.50	    10.247
  14.360         86.67	    10.198
  14.380         81.67	     9.899
  14.400         67.50	     9.000
