
Filename:
	C:\Program Files\Thermo Electron\WinXRD\Datafiles\F_HERMAN\GEO\G89_RT.raw

File Created:
	February 21, 2020 - 04:21 AM

Specimen Id:
	G89_RT

Specimen Name:
	

Specimen Description:
	

Comment:
Scan Type: 2Theta Scan
Start Angle: 3 deg.
Stop Angle: 65 deg.
Num Points: 3101
Step Size: 0.02 deg.
Scan Rate: 1.000000
Scan Mode: Continuous
Wavelength: 1.540562
\Kalpha1: 1.540562	\Kalpha2: 1.544390	\Kbeta: 1.392218

Optics:
		Detector:
			 Type: Fixed Slits
		Tube: 
			 Type: Fixed Slits


Datas:
 Pos [deg]       Rate [CPS]      ESD [-]

Range 1 ---> Iteration 1
   3.000        405.83	    22.068
   3.020        455.83	    23.388
   3.040        443.33	    23.065
   3.060        455.83	    23.388
   3.080        445.83	    23.130
   3.100        417.50	    22.383
   3.120        441.67	    23.022
   3.140        445.83	    23.130
   3.160        451.67	    23.281
   3.180        388.33	    21.587
   3.200        445.00	    23.108
   3.220        427.50	    22.650
   3.240        391.67	    21.679
   3.260        393.33	    21.726
   3.280        406.67	    22.091
   3.300        391.67	    21.679
   3.320        413.33	    22.271
   3.340        416.67	    22.361
   3.360        425.83	    22.605
   3.380        400.83	    21.932
   3.400        375.83	    21.237
   3.420        392.50	    21.703
   3.440        360.00	    20.785
   3.460        350.83	    20.518
   3.480        369.17	    21.048
   3.500        368.33	    21.024
   3.520        372.50	    21.142
   3.540        362.50	    20.857
   3.560        372.50	    21.142
   3.580        346.67	    20.396
   3.600        365.83	    20.952
   3.620        389.17	    21.610
   3.640        347.50	    20.421
   3.660        352.50	    20.567
   3.680        373.33	    21.166
   3.700        371.67	    21.119
   3.720        351.67	    20.543
   3.740        326.67	    19.799
   3.760        356.67	    20.688
   3.780        353.33	    20.591
   3.800        362.50	    20.857
   3.820        364.17	    20.905
   3.840        302.50	    19.053
   3.860        364.17	    20.905
   3.880        336.67	    20.100
   3.900        342.50	    20.273
   3.920        299.17	    18.947
   3.940        333.33	    20.000
   3.960        345.00	    20.347
   3.980        305.83	    19.157
   4.000        305.83	    19.157
   4.020        284.17	    18.466
   4.040        295.00	    18.815
   4.060        321.67	    19.647
   4.080        341.67	    20.248
   4.100        326.67	    19.799
   4.120        312.50	    19.365
   4.140        309.17	    19.261
   4.160        337.50	    20.125
   4.180        321.67	    19.647
   4.200        313.33	    19.391
   4.220        289.17	    18.628
   4.240        294.17	    18.788
   4.260        312.50	    19.365
   4.280        306.67	    19.183
   4.300        310.00	    19.287
   4.320        287.50	    18.574
   4.340        285.83	    18.520
   4.360        316.67	    19.494
   4.380        268.33	    17.944
   4.400        302.50	    19.053
   4.420        278.33	    18.276
   4.440        302.50	    19.053
   4.460        270.00	    18.000
   4.480        246.67	    17.205
   4.500        267.50	    17.916
   4.520        263.33	    17.776
   4.540        290.00	    18.655
   4.560        284.17	    18.466
   4.580        295.00	    18.815
   4.600        293.33	    18.762
   4.620        268.33	    17.944
   4.640        282.50	    18.412
   4.660        258.33	    17.607
   4.680        265.83	    17.861
   4.700        255.00	    17.493
   4.720        290.83	    18.682
   4.740        263.33	    17.776
   4.760        282.50	    18.412
   4.780        258.33	    17.607
   4.800        261.67	    17.720
   4.820        246.67	    17.205
   4.840        233.33	    16.733
   4.860        255.00	    17.493
   4.880        269.17	    17.972
   4.900        244.17	    17.117
   4.920        232.50	    16.703
   4.940        270.83	    18.028
   4.960        248.33	    17.263
   4.980        252.50	    17.407
   5.000        260.00	    17.664
   5.020        278.33	    18.276
   5.040        241.67	    17.029
   5.060        250.00	    17.321
   5.080        254.17	    17.464
   5.100        246.67	    17.205
   5.120        240.00	    16.971
   5.140        271.67	    18.055
   5.160        240.00	    16.971
   5.180        234.17	    16.763
   5.200        223.33	    16.371
   5.220        229.17	    16.583
   5.240        216.67	    16.125
   5.260        236.67	    16.852
   5.280        232.50	    16.703
   5.300        206.67	    15.748
   5.320        231.67	    16.673
   5.340        250.83	    17.349
   5.360        231.67	    16.673
   5.380        225.83	    16.462
   5.400        218.33	    16.186
   5.420        224.17	    16.401
   5.440        235.83	    16.823
   5.460        217.50	    16.155
   5.480        236.67	    16.852
   5.500        220.83	    16.279
   5.520        255.83	    17.521
   5.540        208.33	    15.811
   5.560        223.33	    16.371
   5.580        235.00	    16.793
   5.600        207.50	    15.780
   5.620        240.83	    17.000
   5.640        215.83	    16.093
   5.660        220.83	    16.279
   5.680        218.33	    16.186
   5.700        232.50	    16.703
   5.720        241.67	    17.029
   5.740        226.67	    16.492
   5.760        257.50	    17.578
   5.780        206.67	    15.748
   5.800        230.83	    16.643
   5.820        225.00	    16.432
   5.840        239.17	    16.941
   5.860        270.00	    18.000
   5.880        253.33	    17.436
   5.900        277.50	    18.248
   5.920        269.17	    17.972
   5.940        257.50	    17.578
   5.960        259.17	    17.635
   5.980        268.33	    17.944
   6.000        265.83	    17.861
   6.020        270.00	    18.000
   6.040        246.67	    17.205
   6.060        242.50	    17.059
   6.080        267.50	    17.916
   6.100        251.67	    17.378
   6.120        286.67	    18.547
   6.140        304.17	    19.105
   6.160        302.50	    19.053
   6.180        330.83	    19.925
   6.200        270.83	    18.028
   6.220        247.50	    17.234
   6.240        230.83	    16.643
   6.260        220.00	    16.248
   6.280        219.17	    16.217
   6.300        220.83	    16.279
   6.320        192.50	    15.199
   6.340        213.33	    16.000
   6.360        189.17	    15.067
   6.380        199.17	    15.460
   6.400        191.67	    15.166
   6.420        205.00	    15.684
   6.440        210.83	    15.906
   6.460        190.83	    15.133
   6.480        201.67	    15.556
   6.500        197.50	    15.395
   6.520        183.33	    14.832
   6.540        200.00	    15.492
   6.560        178.33	    14.629
   6.580        202.50	    15.588
   6.600        188.33	    15.033
   6.620        177.50	    14.595
   6.640        182.50	    14.799
   6.660        179.17	    14.663
   6.680        180.83	    14.731
   6.700        188.33	    15.033
   6.720        181.67	    14.765
   6.740        155.83	    13.675
   6.760        180.83	    14.731
   6.780        173.33	    14.422
   6.800        176.67	    14.560
   6.820        183.33	    14.832
   6.840        171.67	    14.353
   6.860        164.17	    14.036
   6.880        168.33	    14.213
   6.900        175.00	    14.491
   6.920        188.33	    15.033
   6.940        177.50	    14.595
   6.960        177.50	    14.595
   6.980        175.83	    14.526
   7.000        156.67	    13.711
   7.020        185.00	    14.900
   7.040        180.00	    14.697
   7.060        153.33	    13.565
   7.080        150.00	    13.416
   7.100        171.67	    14.353
   7.120        146.67	    13.266
   7.140        180.83	    14.731
   7.160        153.33	    13.565
   7.180        186.67	    14.967
   7.200        172.50	    14.387
   7.220        166.67	    14.142
   7.240        165.83	    14.107
   7.260        167.50	    14.177
   7.280        164.17	    14.036
   7.300        165.00	    14.071
   7.320        160.00	    13.856
   7.340        150.83	    13.454
   7.360        147.50	    13.304
   7.380        165.00	    14.071
   7.400        181.67	    14.765
   7.420        148.33	    13.342
   7.440        191.67	    15.166
   7.460        143.33	    13.115
   7.480        160.83	    13.892
   7.500        164.17	    14.036
   7.520        174.17	    14.457
   7.540        163.33	    14.000
   7.560        148.33	    13.342
   7.580        148.33	    13.342
   7.600        166.67	    14.142
   7.620        166.67	    14.142
   7.640        149.17	    13.379
   7.660        160.83	    13.892
   7.680        155.83	    13.675
   7.700        159.17	    13.820
   7.720        162.50	    13.964
   7.740        155.00	    13.638
   7.760        160.83	    13.892
   7.780        170.00	    14.283
   7.800        155.83	    13.675
   7.820        155.83	    13.675
   7.840        150.00	    13.416
   7.860        157.50	    13.748
   7.880        169.17	    14.248
   7.900        158.33	    13.784
   7.920        165.00	    14.071
   7.940        172.50	    14.387
   7.960        145.00	    13.191
   7.980        142.50	    13.077
   8.000        154.17	    13.601
   8.020        150.00	    13.416
   8.040        158.33	    13.784
   8.060        163.33	    14.000
   8.080        145.83	    13.229
   8.100        163.33	    14.000
   8.120        170.00	    14.283
   8.140        187.50	    15.000
   8.160        155.83	    13.675
   8.180        147.50	    13.304
   8.200        145.00	    13.191
   8.220        150.00	    13.416
   8.240        161.67	    13.928
   8.260        160.00	    13.856
   8.280        160.00	    13.856
   8.300        149.17	    13.379
   8.320        185.00	    14.900
   8.340        159.17	    13.820
   8.360        181.67	    14.765
   8.380        162.50	    13.964
   8.400        180.83	    14.731
   8.420        170.00	    14.283
   8.440        165.83	    14.107
   8.460        190.83	    15.133
   8.480        190.00	    15.100
   8.500        184.17	    14.866
   8.520        176.67	    14.560
   8.540        217.50	    16.155
   8.560        241.67	    17.029
   8.580        237.50	    16.882
   8.600        264.17	    17.804
   8.620        259.17	    17.635
   8.640        312.50	    19.365
   8.660        322.50	    19.672
   8.680        380.00	    21.354
   8.700        436.67	    22.891
   8.720        495.00	    24.372
   8.740        536.67	    25.377
   8.760        643.33	    27.785
   8.780        844.17	    31.828
   8.800       1062.50	    35.707
   8.820       1015.00	    34.900
   8.840        726.67	    29.530
   8.860        436.67	    22.891
   8.880        265.83	    17.861
   8.900        198.33	    15.427
   8.920        199.17	    15.460
   8.940        168.33	    14.213
   8.960        178.33	    14.629
   8.980        164.17	    14.036
   9.000        159.17	    13.820
   9.020        174.17	    14.457
   9.040        145.00	    13.191
   9.060        160.00	    13.856
   9.080        152.50	    13.528
   9.100        171.67	    14.353
   9.120        160.83	    13.892
   9.140        141.67	    13.038
   9.160        154.17	    13.601
   9.180        138.33	    12.884
   9.200        140.83	    13.000
   9.220        131.67	    12.570
   9.240        138.33	    12.884
   9.260        130.00	    12.490
   9.280        131.67	    12.570
   9.300        127.50	    12.369
   9.320        134.17	    12.689
   9.340        147.50	    13.304
   9.360        136.67	    12.806
   9.380        139.17	    12.923
   9.400        144.17	    13.153
   9.420        111.67	    11.576
   9.440        120.00	    12.000
   9.460        130.00	    12.490
   9.480        145.83	    13.229
   9.500        118.33	    11.916
   9.520        126.67	    12.329
   9.540        130.83	    12.530
   9.560        128.33	    12.410
   9.580        117.50	    11.874
   9.600        136.67	    12.806
   9.620        123.33	    12.166
   9.640        120.00	    12.000
   9.660        130.00	    12.490
   9.680        126.67	    12.329
   9.700        114.17	    11.705
   9.720        134.17	    12.689
   9.740        143.33	    13.115
   9.760        101.67	    11.045
   9.780        117.50	    11.874
   9.800        125.83	    12.288
   9.820        112.50	    11.619
   9.840        115.83	    11.790
   9.860        126.67	    12.329
   9.880        100.00	    10.954
   9.900        106.67	    11.314
   9.920        112.50	    11.619
   9.940        118.33	    11.916
   9.960        100.83	    11.000
   9.980        108.33	    11.402
  10.000         96.67	    10.770
  10.020        121.67	    12.083
  10.040        115.00	    11.747
  10.060        130.83	    12.530
  10.080        123.33	    12.166
  10.100        111.67	    11.576
  10.120        121.67	    12.083
  10.140        106.67	    11.314
  10.160         97.50	    10.817
  10.180        103.33	    11.136
  10.200        117.50	    11.874
  10.220        124.17	    12.207
  10.240        130.00	    12.490
  10.260        110.83	    11.533
  10.280        120.00	    12.000
  10.300         96.67	    10.770
  10.320        114.17	    11.705
  10.340        109.17	    11.446
  10.360        116.67	    11.832
  10.380        119.17	    11.958
  10.400        144.17	    13.153
  10.420        167.50	    14.177
  10.440        161.67	    13.928
  10.460        170.83	    14.318
  10.480        152.50	    13.528
  10.500        113.33	    11.662
  10.520        115.83	    11.790
  10.540        100.83	    11.000
  10.560         94.17	    10.630
  10.580        120.00	    12.000
  10.600        105.00	    11.225
  10.620         99.17	    10.909
  10.640        105.00	    11.225
  10.660        115.83	    11.790
  10.680        110.00	    11.489
  10.700        103.33	    11.136
  10.720        102.50	    11.091
  10.740         95.00	    10.677
  10.760        112.50	    11.619
  10.780        101.67	    11.045
  10.800         97.50	    10.817
  10.820        111.67	    11.576
  10.840        119.17	    11.958
  10.860        110.83	    11.533
  10.880        108.33	    11.402
  10.900        102.50	    11.091
  10.920         80.00	     9.798
  10.940        111.67	    11.576
  10.960         99.17	    10.909
  10.980         90.00	    10.392
  11.000        101.67	    11.045
  11.020         90.83	    10.440
  11.040        105.00	    11.225
  11.060        105.00	    11.225
  11.080        107.50	    11.358
  11.100         97.50	    10.817
  11.120        110.83	    11.533
  11.140        113.33	    11.662
  11.160        106.67	    11.314
  11.180        117.50	    11.874
  11.200         98.33	    10.863
  11.220        104.17	    11.180
  11.240         93.33	    10.583
  11.260        101.67	    11.045
  11.280        105.83	    11.269
  11.300        113.33	    11.662
  11.320         90.83	    10.440
  11.340        104.17	    11.180
  11.360         84.17	    10.050
  11.380         86.67	    10.198
  11.400         95.00	    10.677
  11.420        107.50	    11.358
  11.440        109.17	    11.446
  11.460         99.17	    10.909
  11.480        100.00	    10.954
  11.500        103.33	    11.136
  11.520         98.33	    10.863
  11.540        107.50	    11.358
  11.560         89.17	    10.344
  11.580        105.83	    11.269
  11.600        120.83	    12.042
  11.620        107.50	    11.358
  11.640        105.83	    11.269
  11.660         94.17	    10.630
  11.680        117.50	    11.874
  11.700        110.83	    11.533
  11.720        104.17	    11.180
  11.740        111.67	    11.576
  11.760         94.17	    10.630
  11.780         98.33	    10.863
  11.800         98.33	    10.863
  11.820         94.17	    10.630
  11.840        105.83	    11.269
  11.860        123.33	    12.166
  11.880        105.83	    11.269
  11.900        100.83	    11.000
  11.920        108.33	    11.402
  11.940        107.50	    11.358
  11.960        100.83	    11.000
  11.980         98.33	    10.863
  12.000        100.00	    10.954
  12.020        124.17	    12.207
  12.040        130.00	    12.490
  12.060        121.67	    12.083
  12.080        140.00	    12.961
  12.100        189.17	    15.067
  12.120        192.50	    15.199
  12.140        175.83	    14.526
  12.160        135.00	    12.728
  12.180        133.33	    12.649
  12.200        120.83	    12.042
  12.220        119.17	    11.958
  12.240        136.67	    12.806
  12.260        119.17	    11.958
  12.280        142.50	    13.077
  12.300        138.33	    12.884
  12.320        163.33	    14.000
  12.340        187.50	    15.000
  12.360        197.50	    15.395
  12.380        263.33	    17.776
  12.400        342.50	    20.273
  12.420        431.67	    22.760
  12.440        445.00	    23.108
  12.460        432.50	    22.782
  12.480        270.00	    18.000
  12.500        193.33	    15.232
  12.520        146.67	    13.266
  12.540        114.17	    11.705
  12.560         92.50	    10.536
  12.580         96.67	    10.770
  12.600        108.33	    11.402
  12.620         96.67	    10.770
  12.640         90.83	    10.440
  12.660         86.67	    10.198
  12.680        119.17	    11.958
  12.700        107.50	    11.358
  12.720         95.00	    10.677
  12.740         83.33	    10.000
  12.760        103.33	    11.136
  12.780         88.33	    10.296
  12.800         94.17	    10.630
  12.820         83.33	    10.000
  12.840         80.00	     9.798
  12.860         99.17	    10.909
  12.880         86.67	    10.198
  12.900         90.83	    10.440
  12.920         76.67	     9.592
  12.940         90.00	    10.392
  12.960         75.83	     9.539
  12.980         93.33	    10.583
  13.000         80.83	     9.849
  13.020         82.50	     9.950
  13.040         90.83	    10.440
  13.060         93.33	    10.583
  13.080         85.83	    10.149
  13.100         84.17	    10.050
  13.120         74.17	     9.434
  13.140         91.67	    10.488
  13.160         94.17	    10.630
  13.180         85.00	    10.100
  13.200         67.50	     9.000
  13.220         91.67	    10.488
  13.240         90.83	    10.440
  13.260         93.33	    10.583
  13.280        105.00	    11.225
  13.300         85.83	    10.149
  13.320         81.67	     9.899
  13.340         75.00	     9.487
  13.360         89.17	    10.344
  13.380         75.83	     9.539
  13.400         86.67	    10.198
  13.420         76.67	     9.592
  13.440         76.67	     9.592
  13.460         94.17	    10.630
  13.480         83.33	    10.000
  13.500        102.50	    11.091
  13.520         85.00	    10.100
  13.540         83.33	    10.000
  13.560         84.17	    10.050
  13.580         87.50	    10.247
  13.600         82.50	     9.950
  13.620         94.17	    10.630
  13.640         89.17	    10.344
  13.660         75.83	     9.539
  13.680         70.00	     9.165
  13.700         87.50	    10.247
  13.720         99.17	    10.909
  13.740         99.17	    10.909
  13.760        124.17	    12.207
  13.780        157.50	    13.748
  13.800        152.50	    13.528
  13.820        119.17	    11.958
  13.840         96.67	    10.770
  13.860        102.50	    11.091
  13.880         89.17	    10.344
  13.900         95.83	    10.724
  13.920         84.17	    10.050
  13.940         81.67	     9.899
  13.960         92.50	    10.536
  13.980        112.50	    11.619
  14.000         87.50	    10.247
  14.020         79.17	     9.747
  14.040         84.17	    10.050
  14.060         75.83	     9.539
  14.080         78.33	     9.695
  14.100         79.17	     9.747
  14.120         79.17	     9.747
  14.140         75.83	     9.539
  14.160         75.00	     9.487
  14.180         76.67	     9.592
  14.200         65.83	     8.888
  14.220         79.17	     9.747
  14.240         86.67	    10.198
  14.260         65.00	     8.832
  14.280         85.83	    10.149
  14.300         84.17	    10.050
  14.320         73.33	     9.381
  14.340         70.83	     9.220
  14.360         77.50	     9.644
  14.380         73.33	     9.381
  14.400         88.33	    10.296
