
Filename:
	C:\Program Files\Thermo Electron\WinXRD\Datafiles\F_HERMAN\GEO\G90_RT.raw

File Created:
	February 21, 2020 - 05:24 AM

Specimen Id:
	G90_RT

Specimen Name:
	

Specimen Description:
	

Comment:
Scan Type: 2Theta Scan
Start Angle: 3 deg.
Stop Angle: 65 deg.
Num Points: 3101
Step Size: 0.02 deg.
Scan Rate: 1.000000
Scan Mode: Continuous
Wavelength: 1.540562
\Kalpha1: 1.540562	\Kalpha2: 1.544390	\Kbeta: 1.392218

Optics:
		Detector:
			 Type: Fixed Slits
		Tube: 
			 Type: Fixed Slits


Datas:
 Pos [deg]       Rate [CPS]      ESD [-]

Range 1 ---> Iteration 1
   3.000        445.00	    23.108
   3.020        515.83	    24.880
   3.040        491.67	    24.290
   3.060        461.67	    23.537
   3.080        447.50	    23.173
   3.100        435.00	    22.847
   3.120        444.17	    23.087
   3.140        442.50	    23.043
   3.160        425.83	    22.605
   3.180        439.17	    22.956
   3.200        430.83	    22.738
   3.220        415.00	    22.316
   3.240        428.33	    22.672
   3.260        413.33	    22.271
   3.280        396.67	    21.817
   3.300        361.67	    20.833
   3.320        402.50	    21.977
   3.340        392.50	    21.703
   3.360        412.50	    22.249
   3.380        393.33	    21.726
   3.400        426.67	    22.627
   3.420        394.17	    21.749
   3.440        367.50	    21.000
   3.460        384.17	    21.471
   3.480        395.00	    21.772
   3.500        372.50	    21.142
   3.520        400.00	    21.909
   3.540        371.67	    21.119
   3.560        359.17	    20.761
   3.580        364.17	    20.905
   3.600        389.17	    21.610
   3.620        360.00	    20.785
   3.640        381.67	    21.401
   3.660        351.67	    20.543
   3.680        347.50	    20.421
   3.700        335.00	    20.050
   3.720        389.17	    21.610
   3.740        366.67	    20.976
   3.760        355.83	    20.664
   3.780        332.50	    19.975
   3.800        345.00	    20.347
   3.820        360.00	    20.785
   3.840        338.33	    20.149
   3.860        356.67	    20.688
   3.880        354.17	    20.616
   3.900        325.83	    19.774
   3.920        325.83	    19.774
   3.940        310.00	    19.287
   3.960        330.00	    19.900
   3.980        328.33	    19.849
   4.000        341.67	    20.248
   4.020        334.17	    20.025
   4.040        324.17	    19.723
   4.060        296.67	    18.868
   4.080        294.17	    18.788
   4.100        311.67	    19.339
   4.120        328.33	    19.849
   4.140        285.00	    18.493
   4.160        294.17	    18.788
   4.180        295.00	    18.815
   4.200        330.00	    19.900
   4.220        327.50	    19.824
   4.240        300.00	    18.974
   4.260        296.67	    18.868
   4.280        292.50	    18.735
   4.300        284.17	    18.466
   4.320        301.67	    19.026
   4.340        291.67	    18.708
   4.360        299.17	    18.947
   4.380        301.67	    19.026
   4.400        294.17	    18.788
   4.420        305.00	    19.131
   4.440        289.17	    18.628
   4.460        265.00	    17.833
   4.480        271.67	    18.055
   4.500        294.17	    18.788
   4.520        284.17	    18.466
   4.540        280.83	    18.358
   4.560        272.50	    18.083
   4.580        247.50	    17.234
   4.600        238.33	    16.912
   4.620        272.50	    18.083
   4.640        260.83	    17.692
   4.660        261.67	    17.720
   4.680        286.67	    18.547
   4.700        255.83	    17.521
   4.720        264.17	    17.804
   4.740        290.00	    18.655
   4.760        269.17	    17.972
   4.780        253.33	    17.436
   4.800        263.33	    17.776
   4.820        258.33	    17.607
   4.840        266.67	    17.889
   4.860        255.00	    17.493
   4.880        220.00	    16.248
   4.900        256.67	    17.550
   4.920        255.83	    17.521
   4.940        247.50	    17.234
   4.960        238.33	    16.912
   4.980        249.17	    17.292
   5.000        248.33	    17.263
   5.020        225.83	    16.462
   5.040        245.00	    17.146
   5.060        241.67	    17.029
   5.080        276.67	    18.221
   5.100        254.17	    17.464
   5.120        235.83	    16.823
   5.140        262.50	    17.748
   5.160        225.00	    16.432
   5.180        221.67	    16.310
   5.200        235.83	    16.823
   5.220        242.50	    17.059
   5.240        243.33	    17.088
   5.260        215.83	    16.093
   5.280        219.17	    16.217
   5.300        231.67	    16.673
   5.320        220.00	    16.248
   5.340        215.83	    16.093
   5.360        225.00	    16.432
   5.380        233.33	    16.733
   5.400        246.67	    17.205
   5.420        219.17	    16.217
   5.440        245.83	    17.176
   5.460        200.83	    15.524
   5.480        226.67	    16.492
   5.500        245.83	    17.176
   5.520        215.83	    16.093
   5.540        229.17	    16.583
   5.560        250.00	    17.321
   5.580        245.83	    17.176
   5.600        218.33	    16.186
   5.620        213.33	    16.000
   5.640        225.83	    16.462
   5.660        225.00	    16.432
   5.680        220.00	    16.248
   5.700        232.50	    16.703
   5.720        243.33	    17.088
   5.740        193.33	    15.232
   5.760        240.00	    16.971
   5.780        214.17	    16.031
   5.800        250.00	    17.321
   5.820        234.17	    16.763
   5.840        238.33	    16.912
   5.860        237.50	    16.882
   5.880        230.00	    16.613
   5.900        248.33	    17.263
   5.920        239.17	    16.941
   5.940        270.00	    18.000
   5.960        262.50	    17.748
   5.980        257.50	    17.578
   6.000        222.50	    16.340
   6.020        256.67	    17.550
   6.040        255.83	    17.521
   6.060        250.00	    17.321
   6.080        241.67	    17.029
   6.100        273.33	    18.111
   6.120        287.50	    18.574
   6.140        280.83	    18.358
   6.160        281.67	    18.385
   6.180        263.33	    17.776
   6.200        232.50	    16.703
   6.220        220.83	    16.279
   6.240        216.67	    16.125
   6.260        211.67	    15.937
   6.280        206.67	    15.748
   6.300        209.17	    15.843
   6.320        217.50	    16.155
   6.340        201.67	    15.556
   6.360        184.17	    14.866
   6.380        180.00	    14.697
   6.400        203.33	    15.620
   6.420        190.83	    15.133
   6.440        185.00	    14.900
   6.460        200.00	    15.492
   6.480        196.67	    15.362
   6.500        192.50	    15.199
   6.520        196.67	    15.362
   6.540        182.50	    14.799
   6.560        208.33	    15.811
   6.580        187.50	    15.000
   6.600        186.67	    14.967
   6.620        199.17	    15.460
   6.640        177.50	    14.595
   6.660        195.00	    15.297
   6.680        193.33	    15.232
   6.700        190.83	    15.133
   6.720        185.83	    14.933
   6.740        195.83	    15.330
   6.760        191.67	    15.166
   6.780        194.17	    15.264
   6.800        154.17	    13.601
   6.820        159.17	    13.820
   6.840        163.33	    14.000
   6.860        169.17	    14.248
   6.880        152.50	    13.528
   6.900        175.00	    14.491
   6.920        167.50	    14.177
   6.940        170.83	    14.318
   6.960        183.33	    14.832
   6.980        182.50	    14.799
   7.000        169.17	    14.248
   7.020        183.33	    14.832
   7.040        182.50	    14.799
   7.060        158.33	    13.784
   7.080        164.17	    14.036
   7.100        175.83	    14.526
   7.120        165.00	    14.071
   7.140        154.17	    13.601
   7.160        161.67	    13.928
   7.180        176.67	    14.560
   7.200        166.67	    14.142
   7.220        155.00	    13.638
   7.240        155.83	    13.675
   7.260        180.83	    14.731
   7.280        161.67	    13.928
   7.300        170.83	    14.318
   7.320        155.83	    13.675
   7.340        157.50	    13.748
   7.360        173.33	    14.422
   7.380        135.83	    12.767
   7.400        160.83	    13.892
   7.420        167.50	    14.177
   7.440        178.33	    14.629
   7.460        141.67	    13.038
   7.480        156.67	    13.711
   7.500        150.83	    13.454
   7.520        152.50	    13.528
   7.540        145.00	    13.191
   7.560        144.17	    13.153
   7.580        158.33	    13.784
   7.600        129.17	    12.450
   7.620        130.83	    12.530
   7.640        160.00	    13.856
   7.660        131.67	    12.570
   7.680        168.33	    14.213
   7.700        174.17	    14.457
   7.720        177.50	    14.595
   7.740        136.67	    12.806
   7.760        171.67	    14.353
   7.780        164.17	    14.036
   7.800        167.50	    14.177
   7.820        155.00	    13.638
   7.840        160.83	    13.892
   7.860        159.17	    13.820
   7.880        137.50	    12.845
   7.900        156.67	    13.711
   7.920        170.00	    14.283
   7.940        167.50	    14.177
   7.960        160.00	    13.856
   7.980        164.17	    14.036
   8.000        172.50	    14.387
   8.020        145.00	    13.191
   8.040        168.33	    14.213
   8.060        166.67	    14.142
   8.080        154.17	    13.601
   8.100        145.00	    13.191
   8.120        159.17	    13.820
   8.140        153.33	    13.565
   8.160        149.17	    13.379
   8.180        143.33	    13.115
   8.200        170.00	    14.283
   8.220        166.67	    14.142
   8.240        167.50	    14.177
   8.260        157.50	    13.748
   8.280        162.50	    13.964
   8.300        178.33	    14.629
   8.320        158.33	    13.784
   8.340        161.67	    13.928
   8.360        158.33	    13.784
   8.380        171.67	    14.353
   8.400        173.33	    14.422
   8.420        174.17	    14.457
   8.440        146.67	    13.266
   8.460        173.33	    14.422
   8.480        178.33	    14.629
   8.500        190.83	    15.133
   8.520        205.83	    15.716
   8.540        195.00	    15.297
   8.560        229.17	    16.583
   8.580        230.83	    16.643
   8.600        265.00	    17.833
   8.620        304.17	    19.105
   8.640        320.83	    19.621
   8.660        345.83	    20.372
   8.680        379.17	    21.331
   8.700        375.83	    21.237
   8.720        422.50	    22.517
   8.740        533.33	    25.298
   8.760        739.17	    29.783
   8.780        928.33	    33.377
   8.800        947.50	    33.719
   8.820        702.50	    29.034
   8.840        460.00	    23.495
   8.860        259.17	    17.635
   8.880        196.67	    15.362
   8.900        180.00	    14.697
   8.920        167.50	    14.177
   8.940        194.17	    15.264
   8.960        169.17	    14.248
   8.980        162.50	    13.964
   9.000        145.83	    13.229
   9.020        155.00	    13.638
   9.040        147.50	    13.304
   9.060        143.33	    13.115
   9.080        128.33	    12.410
   9.100        152.50	    13.528
   9.120        143.33	    13.115
   9.140        131.67	    12.570
   9.160        128.33	    12.410
   9.180        137.50	    12.845
   9.200        140.00	    12.961
   9.220        137.50	    12.845
   9.240        115.00	    11.747
   9.260        149.17	    13.379
   9.280        143.33	    13.115
   9.300        138.33	    12.884
   9.320        120.00	    12.000
   9.340        141.67	    13.038
   9.360        151.67	    13.491
   9.380        150.00	    13.416
   9.400        119.17	    11.958
   9.420        119.17	    11.958
   9.440        130.83	    12.530
   9.460        115.00	    11.747
   9.480        134.17	    12.689
   9.500        109.17	    11.446
   9.520        119.17	    11.958
   9.540        112.50	    11.619
   9.560        130.00	    12.490
   9.580        124.17	    12.207
   9.600        110.00	    11.489
   9.620        125.00	    12.247
   9.640        134.17	    12.689
   9.660        133.33	    12.649
   9.680        118.33	    11.916
   9.700        112.50	    11.619
   9.720        115.00	    11.747
   9.740        114.17	    11.705
   9.760        116.67	    11.832
   9.780        105.83	    11.269
   9.800        104.17	    11.180
   9.820        114.17	    11.705
   9.840        123.33	    12.166
   9.860        116.67	    11.832
   9.880        120.00	    12.000
   9.900        116.67	    11.832
   9.920        118.33	    11.916
   9.940        107.50	    11.358
   9.960        102.50	    11.091
   9.980         97.50	    10.817
  10.000        100.00	    10.954
  10.020        110.83	    11.533
  10.040         99.17	    10.909
  10.060        100.00	    10.954
  10.080        114.17	    11.705
  10.100        105.83	    11.269
  10.120        105.83	    11.269
  10.140        120.00	    12.000
  10.160         99.17	    10.909
  10.180        111.67	    11.576
  10.200        117.50	    11.874
  10.220        115.00	    11.747
  10.240        110.00	    11.489
  10.260        114.17	    11.705
  10.280        115.00	    11.747
  10.300         95.00	    10.677
  10.320        117.50	    11.874
  10.340        125.00	    12.247
  10.360        103.33	    11.136
  10.380        129.17	    12.450
  10.400        125.83	    12.288
  10.420        138.33	    12.884
  10.440        135.00	    12.728
  10.460        140.83	    13.000
  10.480        133.33	    12.649
  10.500        118.33	    11.916
  10.520        105.83	    11.269
  10.540        115.00	    11.747
  10.560        109.17	    11.446
  10.580        108.33	    11.402
  10.600         98.33	    10.863
  10.620        108.33	    11.402
  10.640        116.67	    11.832
  10.660        103.33	    11.136
  10.680        109.17	    11.446
  10.700        110.00	    11.489
  10.720        103.33	    11.136
  10.740         92.50	    10.536
  10.760        106.67	    11.314
  10.780         97.50	    10.817
  10.800        120.00	    12.000
  10.820        103.33	    11.136
  10.840        110.83	    11.533
  10.860        105.00	    11.225
  10.880         95.83	    10.724
  10.900        108.33	    11.402
  10.920        106.67	    11.314
  10.940        100.83	    11.000
  10.960         95.00	    10.677
  10.980        103.33	    11.136
  11.000         76.67	     9.592
  11.020         93.33	    10.583
  11.040         93.33	    10.583
  11.060         89.17	    10.344
  11.080         83.33	    10.000
  11.100         90.83	    10.440
  11.120        110.00	    11.489
  11.140         95.83	    10.724
  11.160         95.00	    10.677
  11.180        102.50	    11.091
  11.200         98.33	    10.863
  11.220        103.33	    11.136
  11.240         97.50	    10.817
  11.260         90.00	    10.392
  11.280        104.17	    11.180
  11.300         95.83	    10.724
  11.320        105.83	    11.269
  11.340        100.00	    10.954
  11.360        100.00	    10.954
  11.380         81.67	     9.899
  11.400         84.17	    10.050
  11.420         93.33	    10.583
  11.440         89.17	    10.344
  11.460        105.00	    11.225
  11.480         98.33	    10.863
  11.500        103.33	    11.136
  11.520         99.17	    10.909
  11.540         90.83	    10.440
  11.560        105.00	    11.225
  11.580         89.17	    10.344
  11.600         89.17	    10.344
  11.620         96.67	    10.770
  11.640        102.50	    11.091
  11.660        100.00	    10.954
  11.680         93.33	    10.583
  11.700        103.33	    11.136
  11.720        100.83	    11.000
  11.740         84.17	    10.050
  11.760         90.00	    10.392
  11.780        103.33	    11.136
  11.800        101.67	    11.045
  11.820        104.17	    11.180
  11.840         97.50	    10.817
  11.860        102.50	    11.091
  11.880        118.33	    11.916
  11.900        118.33	    11.916
  11.920        101.67	    11.045
  11.940        109.17	    11.446
  11.960        101.67	    11.045
  11.980         90.00	    10.392
  12.000         87.50	    10.247
  12.020        115.83	    11.790
  12.040        128.33	    12.410
  12.060        129.17	    12.450
  12.080        146.67	    13.266
  12.100        131.67	    12.570
  12.120        120.00	    12.000
  12.140        143.33	    13.115
  12.160        135.83	    12.767
  12.180        120.00	    12.000
  12.200        123.33	    12.166
  12.220        135.83	    12.767
  12.240        117.50	    11.874
  12.260        128.33	    12.410
  12.280        144.17	    13.153
  12.300        165.83	    14.107
  12.320        146.67	    13.266
  12.340        177.50	    14.595
  12.360        196.67	    15.362
  12.380        267.50	    17.916
  12.400        385.00	    21.494
  12.420        395.83	    21.794
  12.440        348.33	    20.445
  12.460        276.67	    18.221
  12.480        176.67	    14.560
  12.500        117.50	    11.874
  12.520        120.00	    12.000
  12.540        101.67	    11.045
  12.560        110.83	    11.533
  12.580         80.83	     9.849
  12.600         90.00	    10.392
  12.620         96.67	    10.770
  12.640         85.83	    10.149
  12.660         80.83	     9.849
  12.680         97.50	    10.817
  12.700         80.00	     9.798
  12.720         80.83	     9.849
  12.740         87.50	    10.247
  12.760         74.17	     9.434
  12.780         81.67	     9.899
  12.800         85.83	    10.149
  12.820         83.33	    10.000
  12.840         84.17	    10.050
  12.860         80.83	     9.849
  12.880         66.67	     8.944
  12.900         75.83	     9.539
  12.920         91.67	    10.488
  12.940         79.17	     9.747
  12.960         89.17	    10.344
  12.980         87.50	    10.247
  13.000         88.33	    10.296
  13.020         70.83	     9.220
  13.040         95.83	    10.724
  13.060         99.17	    10.909
  13.080         88.33	    10.296
  13.100         90.00	    10.392
  13.120         88.33	    10.296
  13.140         81.67	     9.899
  13.160         80.00	     9.798
  13.180         98.33	    10.863
  13.200         84.17	    10.050
  13.220         85.00	    10.100
  13.240         75.83	     9.539
  13.260         78.33	     9.695
  13.280         79.17	     9.747
  13.300         85.83	    10.149
  13.320         85.83	    10.149
  13.340         85.83	    10.149
  13.360         94.17	    10.630
  13.380         80.83	     9.849
  13.400         69.17	     9.110
  13.420         80.00	     9.798
  13.440        100.00	    10.954
  13.460         75.00	     9.487
  13.480         97.50	    10.817
  13.500         78.33	     9.695
  13.520         90.83	    10.440
  13.540         97.50	    10.817
  13.560         81.67	     9.899
  13.580         76.67	     9.592
  13.600         81.67	     9.899
  13.620         81.67	     9.899
  13.640         71.67	     9.274
  13.660         84.17	    10.050
  13.680         83.33	    10.000
  13.700         72.50	     9.327
  13.720        104.17	    11.180
  13.740        115.00	    11.747
  13.760        120.00	    12.000
  13.780        106.67	    11.314
  13.800         98.33	    10.863
  13.820        101.67	    11.045
  13.840         95.00	    10.677
  13.860         94.17	    10.630
  13.880        107.50	    11.358
  13.900         78.33	     9.695
  13.920         86.67	    10.198
  13.940         76.67	     9.592
  13.960         82.50	     9.950
  13.980         85.83	    10.149
  14.000         75.83	     9.539
  14.020         80.83	     9.849
  14.040         80.00	     9.798
  14.060         74.17	     9.434
  14.080         83.33	    10.000
  14.100         75.00	     9.487
  14.120         85.83	    10.149
  14.140         63.33	     8.718
  14.160         85.00	    10.100
  14.180         93.33	    10.583
  14.200         69.17	     9.110
  14.220         86.67	    10.198
  14.240         65.83	     8.888
  14.260         80.83	     9.849
  14.280         84.17	    10.050
  14.300         74.17	     9.434
  14.320         80.00	     9.798
  14.340         80.83	     9.849
  14.360         85.00	    10.100
  14.380         82.50	     9.950
  14.400         82.50	     9.950
