
Filename:
	C:\Program Files\Thermo Electron\WinXRD\Datafiles\F_HERMAN\GEO\GG_13_SFT.raw

File Created:
	October 13, 2020 - 09:24 AM

Specimen Id:
	GG_13_SFT

Specimen Name:
	

Specimen Description:
	

Comment:
Scan Type: 2Theta Scan
Start Angle: 3 deg.
Stop Angle: 65 deg.
Num Points: 3101
Step Size: 0.02 deg.
Scan Rate: 1.000000
Scan Mode: Continuous
Wavelength: 1.540562
\Kalpha1: 1.540562	\Kalpha2: 1.544390	\Kbeta: 1.392218

Optics:
		Detector:
			 Type: Fixed Slits
		Tube: 
			 Type: Fixed Slits


Datas:
 Pos [deg]       Rate [CPS]      ESD [-]

Range 1 ---> Iteration 1
   3.000        340.00	    20.199
   3.020        344.17	    20.322
   3.040        330.00	    19.900
   3.060        279.17	    18.303
   3.080        313.33	    19.391
   3.100        278.33	    18.276
   3.120        310.83	    19.313
   3.140        326.67	    19.799
   3.160        308.33	    19.235
   3.180        292.50	    18.735
   3.200        310.83	    19.313
   3.220        298.33	    18.921
   3.240        304.17	    19.105
   3.260        285.83	    18.520
   3.280        313.33	    19.391
   3.300        305.83	    19.157
   3.320        280.83	    18.358
   3.340        297.50	    18.894
   3.360        301.67	    19.026
   3.380        276.67	    18.221
   3.400        279.17	    18.303
   3.420        282.50	    18.412
   3.440        290.00	    18.655
   3.460        291.67	    18.708
   3.480        265.00	    17.833
   3.500        261.67	    17.720
   3.520        275.83	    18.193
   3.540        263.33	    17.776
   3.560        288.33	    18.601
   3.580        275.83	    18.193
   3.600        260.00	    17.664
   3.620        260.00	    17.664
   3.640        264.17	    17.804
   3.660        254.17	    17.464
   3.680        258.33	    17.607
   3.700        246.67	    17.205
   3.720        252.50	    17.407
   3.740        243.33	    17.088
   3.760        240.83	    17.000
   3.780        239.17	    16.941
   3.800        259.17	    17.635
   3.820        255.83	    17.521
   3.840        264.17	    17.804
   3.860        266.67	    17.889
   3.880        246.67	    17.205
   3.900        216.67	    16.125
   3.920        230.83	    16.643
   3.940        245.83	    17.176
   3.960        228.33	    16.553
   3.980        202.50	    15.588
   4.000        228.33	    16.553
   4.020        250.83	    17.349
   4.040        211.67	    15.937
   4.060        229.17	    16.583
   4.080        224.17	    16.401
   4.100        234.17	    16.763
   4.120        222.50	    16.340
   4.140        223.33	    16.371
   4.160        227.50	    16.523
   4.180        215.00	    16.062
   4.200        210.00	    15.875
   4.220        215.00	    16.062
   4.240        205.00	    15.684
   4.260        221.67	    16.310
   4.280        200.83	    15.524
   4.300        176.67	    14.560
   4.320        193.33	    15.232
   4.340        220.83	    16.279
   4.360        203.33	    15.620
   4.380        186.67	    14.967
   4.400        179.17	    14.663
   4.420        205.00	    15.684
   4.440        211.67	    15.937
   4.460        187.50	    15.000
   4.480        203.33	    15.620
   4.500        200.00	    15.492
   4.520        210.83	    15.906
   4.540        207.50	    15.780
   4.560        176.67	    14.560
   4.580        203.33	    15.620
   4.600        187.50	    15.000
   4.620        180.83	    14.731
   4.640        169.17	    14.248
   4.660        205.83	    15.716
   4.680        223.33	    16.371
   4.700        206.67	    15.748
   4.720        178.33	    14.629
   4.740        193.33	    15.232
   4.760        174.17	    14.457
   4.780        167.50	    14.177
   4.800        171.67	    14.353
   4.820        171.67	    14.353
   4.840        192.50	    15.199
   4.860        202.50	    15.588
   4.880        171.67	    14.353
   4.900        174.17	    14.457
   4.920        181.67	    14.765
   4.940        173.33	    14.422
   4.960        157.50	    13.748
   4.980        174.17	    14.457
   5.000        197.50	    15.395
   5.020        189.17	    15.067
   5.040        177.50	    14.595
   5.060        175.00	    14.491
   5.080        176.67	    14.560
   5.100        172.50	    14.387
   5.120        177.50	    14.595
   5.140        163.33	    14.000
   5.160        185.83	    14.933
   5.180        167.50	    14.177
   5.200        180.00	    14.697
   5.220        184.17	    14.866
   5.240        147.50	    13.304
   5.260        183.33	    14.832
   5.280        171.67	    14.353
   5.300        150.83	    13.454
   5.320        180.83	    14.731
   5.340        145.83	    13.229
   5.360        167.50	    14.177
   5.380        148.33	    13.342
   5.400        160.00	    13.856
   5.420        155.83	    13.675
   5.440        165.83	    14.107
   5.460        177.50	    14.595
   5.480        164.17	    14.036
   5.500        148.33	    13.342
   5.520        147.50	    13.304
   5.540        151.67	    13.491
   5.560        151.67	    13.491
   5.580        144.17	    13.153
   5.600        156.67	    13.711
   5.620        144.17	    13.153
   5.640        140.00	    12.961
   5.660        170.00	    14.283
   5.680        156.67	    13.711
   5.700        171.67	    14.353
   5.720        168.33	    14.213
   5.740        137.50	    12.845
   5.760        142.50	    13.077
   5.780        155.83	    13.675
   5.800        160.00	    13.856
   5.820        161.67	    13.928
   5.840        151.67	    13.491
   5.860        140.00	    12.961
   5.880        160.83	    13.892
   5.900        147.50	    13.304
   5.920        137.50	    12.845
   5.940        143.33	    13.115
   5.960        153.33	    13.565
   5.980        136.67	    12.806
   6.000        153.33	    13.565
   6.020        150.00	    13.416
   6.040        147.50	    13.304
   6.060        162.50	    13.964
   6.080        140.00	    12.961
   6.100        156.67	    13.711
   6.120        171.67	    14.353
   6.140        156.67	    13.711
   6.160        156.67	    13.711
   6.180        169.17	    14.248
   6.200        181.67	    14.765
   6.220        182.50	    14.799
   6.240        172.50	    14.387
   6.260        195.83	    15.330
   6.280        171.67	    14.353
   6.300        176.67	    14.560
   6.320        170.00	    14.283
   6.340        155.00	    13.638
   6.360        177.50	    14.595
   6.380        153.33	    13.565
   6.400        137.50	    12.845
   6.420        169.17	    14.248
   6.440        145.00	    13.191
   6.460        155.83	    13.675
   6.480        168.33	    14.213
   6.500        141.67	    13.038
   6.520        155.83	    13.675
   6.540        148.33	    13.342
   6.560        120.83	    12.042
   6.580        125.83	    12.288
   6.600        129.17	    12.450
   6.620        142.50	    13.077
   6.640        121.67	    12.083
   6.660        129.17	    12.450
   6.680        135.00	    12.728
   6.700        145.83	    13.229
   6.720        129.17	    12.450
   6.740        127.50	    12.369
   6.760        112.50	    11.619
   6.780        126.67	    12.329
   6.800        141.67	    13.038
   6.820        148.33	    13.342
   6.840        113.33	    11.662
   6.860        133.33	    12.649
   6.880        127.50	    12.369
   6.900        135.00	    12.728
   6.920        125.00	    12.247
   6.940        119.17	    11.958
   6.960        130.00	    12.490
   6.980        116.67	    11.832
   7.000        101.67	    11.045
   7.020        120.00	    12.000
   7.040        140.00	    12.961
   7.060        115.00	    11.747
   7.080        122.50	    12.124
   7.100        117.50	    11.874
   7.120        131.67	    12.570
   7.140        115.83	    11.790
   7.160        141.67	    13.038
   7.180        113.33	    11.662
   7.200        110.00	    11.489
   7.220        100.00	    10.954
   7.240        112.50	    11.619
   7.260        119.17	    11.958
   7.280        101.67	    11.045
   7.300        117.50	    11.874
   7.320        105.83	    11.269
   7.340        113.33	    11.662
   7.360        132.50	    12.610
   7.380        109.17	    11.446
   7.400        102.50	    11.091
   7.420        122.50	    12.124
   7.440        112.50	    11.619
   7.460        112.50	    11.619
   7.480        114.17	    11.705
   7.500         90.83	    10.440
   7.520        122.50	    12.124
   7.540        105.00	    11.225
   7.560        112.50	    11.619
   7.580         99.17	    10.909
   7.600         99.17	    10.909
   7.620        120.83	    12.042
   7.640        105.83	    11.269
   7.660        109.17	    11.446
   7.680        121.67	    12.083
   7.700         98.33	    10.863
   7.720         98.33	    10.863
   7.740         98.33	    10.863
   7.760        113.33	    11.662
   7.780         96.67	    10.770
   7.800        110.00	    11.489
   7.820        100.00	    10.954
   7.840        103.33	    11.136
   7.860        101.67	    11.045
   7.880        117.50	    11.874
   7.900         85.83	    10.149
   7.920         95.00	    10.677
   7.940         91.67	    10.488
   7.960         99.17	    10.909
   7.980        114.17	    11.705
   8.000        107.50	    11.358
   8.020         93.33	    10.583
   8.040         98.33	    10.863
   8.060         99.17	    10.909
   8.080         82.50	     9.950
   8.100        105.83	    11.269
   8.120        100.83	    11.000
   8.140         99.17	    10.909
   8.160         80.83	     9.849
   8.180        100.00	    10.954
   8.200         90.00	    10.392
   8.220         86.67	    10.198
   8.240         96.67	    10.770
   8.260         80.83	     9.849
   8.280         85.83	    10.149
   8.300        112.50	    11.619
   8.320        100.00	    10.954
   8.340        101.67	    11.045
   8.360         95.00	    10.677
   8.380         97.50	    10.817
   8.400         90.83	    10.440
   8.420         84.17	    10.050
   8.440        106.67	    11.314
   8.460         94.17	    10.630
   8.480         98.33	    10.863
   8.500        101.67	    11.045
   8.520         92.50	    10.536
   8.540         95.83	    10.724
   8.560        116.67	    11.832
   8.580         90.00	    10.392
   8.600        101.67	    11.045
   8.620         90.00	    10.392
   8.640        100.83	    11.000
   8.660         84.17	    10.050
   8.680         78.33	     9.695
   8.700         90.83	    10.440
   8.720        118.33	    11.916
   8.740        110.00	    11.489
   8.760         91.67	    10.488
   8.780         97.50	    10.817
   8.800         88.33	    10.296
   8.820        117.50	    11.874
   8.840        110.00	    11.489
   8.860        124.17	    12.207
   8.880         97.50	    10.817
   8.900        104.17	    11.180
   8.920         97.50	    10.817
   8.940        113.33	    11.662
   8.960        130.00	    12.490
   8.980        142.50	    13.077
   9.000        110.00	    11.489
   9.020        125.00	    12.247
   9.040        151.67	    13.491
   9.060        169.17	    14.248
   9.080        164.17	    14.036
   9.100        203.33	    15.620
   9.120        203.33	    15.620
   9.140        258.33	    17.607
   9.160        260.00	    17.664
   9.180        198.33	    15.427
   9.200        107.50	    11.358
   9.220         93.33	    10.583
   9.240         99.17	    10.909
   9.260         94.17	    10.630
   9.280         80.00	     9.798
   9.300         95.00	    10.677
   9.320         86.67	    10.198
   9.340         89.17	    10.344
   9.360         84.17	    10.050
   9.380         95.83	    10.724
   9.400         97.50	    10.817
   9.420         80.83	     9.849
   9.440         89.17	    10.344
   9.460         64.17	     8.775
   9.480         73.33	     9.381
   9.500         70.83	     9.220
   9.520         81.67	     9.899
   9.540         89.17	    10.344
   9.560         84.17	    10.050
   9.580         78.33	     9.695
   9.600         89.17	    10.344
   9.620         77.50	     9.644
   9.640         72.50	     9.327
   9.660         67.50	     9.000
   9.680         65.83	     8.888
   9.700         80.83	     9.849
   9.720         89.17	    10.344
   9.740         97.50	    10.817
   9.760         69.17	     9.110
   9.780         72.50	     9.327
   9.800         74.17	     9.434
   9.820         84.17	    10.050
   9.840         77.50	     9.644
   9.860         86.67	    10.198
   9.880         80.00	     9.798
   9.900         86.67	    10.198
   9.920         93.33	    10.583
   9.940         88.33	    10.296
   9.960         66.67	     8.944
   9.980         70.83	     9.220
  10.000         82.50	     9.950
  10.020         71.67	     9.274
  10.040         90.00	    10.392
  10.060         65.83	     8.888
  10.080         74.17	     9.434
  10.100         69.17	     9.110
  10.120         58.33	     8.367
  10.140         65.83	     8.888
  10.160         57.50	     8.307
  10.180         70.83	     9.220
  10.200         69.17	     9.110
  10.220         69.17	     9.110
  10.240         65.00	     8.832
  10.260         73.33	     9.381
  10.280         62.50	     8.660
  10.300         65.00	     8.832
  10.320         70.83	     9.220
  10.340         50.83	     7.810
  10.360         75.00	     9.487
  10.380         55.00	     8.124
  10.400         61.67	     8.602
  10.420         62.50	     8.660
  10.440         75.00	     9.487
  10.460         52.50	     7.937
  10.480         65.00	     8.832
  10.500         69.17	     9.110
  10.520         70.83	     9.220
  10.540         76.67	     9.592
  10.560         78.33	     9.695
  10.580         58.33	     8.367
  10.600         87.50	    10.247
  10.620         73.33	     9.381
  10.640         69.17	     9.110
  10.660         60.83	     8.544
  10.680         73.33	     9.381
  10.700         70.00	     9.165
  10.720         99.17	    10.909
  10.740         94.17	    10.630
  10.760         78.33	     9.695
  10.780         86.67	    10.198
  10.800         85.00	    10.100
  10.820         62.50	     8.660
  10.840         57.50	     8.307
  10.860         60.00	     8.485
  10.880         61.67	     8.602
  10.900         64.17	     8.775
  10.920         65.83	     8.888
  10.940         63.33	     8.718
  10.960         68.33	     9.055
  10.980         75.00	     9.487
  11.000         62.50	     8.660
  11.020         57.50	     8.307
  11.040         45.83	     7.416
  11.060         60.83	     8.544
  11.080         50.00	     7.746
  11.100         51.67	     7.874
  11.120         49.17	     7.681
  11.140         57.50	     8.307
  11.160         61.67	     8.602
  11.180         56.67	     8.246
  11.200         50.83	     7.810
  11.220         65.00	     8.832
  11.240         69.17	     9.110
  11.260         66.67	     8.944
  11.280         69.17	     9.110
  11.300         50.00	     7.746
  11.320         67.50	     9.000
  11.340         64.17	     8.775
  11.360         59.17	     8.426
  11.380         56.67	     8.246
  11.400         57.50	     8.307
  11.420         52.50	     7.937
  11.440         47.50	     7.550
  11.460         53.33	     8.000
  11.480         55.83	     8.185
  11.500         53.33	     8.000
  11.520         74.17	     9.434
  11.540         65.83	     8.888
  11.560         55.83	     8.185
  11.580         58.33	     8.367
  11.600         57.50	     8.307
  11.620         59.17	     8.426
  11.640         63.33	     8.718
  11.660         75.00	     9.487
  11.680         57.50	     8.307
  11.700         55.83	     8.185
  11.720         52.50	     7.937
  11.740         56.67	     8.246
  11.760         56.67	     8.246
  11.780         58.33	     8.367
  11.800         51.67	     7.874
  11.820         65.00	     8.832
  11.840         60.83	     8.544
  11.860         56.67	     8.246
  11.880         66.67	     8.944
  11.900         48.33	     7.616
  11.920         60.83	     8.544
  11.940         72.50	     9.327
  11.960         60.83	     8.544
  11.980         64.17	     8.775
  12.000         58.33	     8.367
  12.020         55.00	     8.124
  12.040         51.67	     7.874
  12.060         56.67	     8.246
  12.080         72.50	     9.327
  12.100         54.17	     8.062
  12.120         55.83	     8.185
  12.140         50.00	     7.746
  12.160         67.50	     9.000
  12.180         70.00	     9.165
  12.200         85.83	    10.149
  12.220         79.17	     9.747
  12.240         84.17	    10.050
  12.260         69.17	     9.110
  12.280         65.00	     8.832
  12.300         73.33	     9.381
  12.320         88.33	    10.296
  12.340        110.83	    11.533
  12.360        110.00	    11.489
  12.380        141.67	    13.038
  12.400        168.33	    14.213
  12.420        196.67	    15.362
  12.440        201.67	    15.556
  12.460        162.50	    13.964
  12.480        123.33	    12.166
  12.500        106.67	    11.314
  12.520        101.67	    11.045
  12.540         87.50	    10.247
  12.560        100.83	    11.000
  12.580        108.33	    11.402
  12.600        116.67	    11.832
  12.620        103.33	    11.136
  12.640        115.00	    11.747
  12.660        109.17	    11.446
  12.680        127.50	    12.369
  12.700        160.83	    13.892
  12.720        167.50	    14.177
  12.740        190.00	    15.100
  12.760        145.83	    13.229
  12.780        112.50	    11.619
  12.800         89.17	    10.344
  12.820         69.17	     9.110
  12.840         61.67	     8.602
  12.860         50.83	     7.810
  12.880         56.67	     8.246
  12.900         71.67	     9.274
  12.920         49.17	     7.681
  12.940         45.00	     7.348
  12.960         55.00	     8.124
  12.980         52.50	     7.937
  13.000         48.33	     7.616
  13.020         58.33	     8.367
  13.040         56.67	     8.246
  13.060         62.50	     8.660
  13.080         50.00	     7.746
  13.100         46.67	     7.483
  13.120         66.67	     8.944
  13.140         44.17	     7.280
  13.160         42.50	     7.141
  13.180         60.00	     8.485
  13.200         42.50	     7.141
  13.220         55.00	     8.124
  13.240         42.50	     7.141
  13.260         48.33	     7.616
  13.280         45.83	     7.416
  13.300         48.33	     7.616
  13.320         57.50	     8.307
  13.340         55.83	     8.185
  13.360         49.17	     7.681
  13.380         54.17	     8.062
  13.400         41.67	     7.071
  13.420         42.50	     7.141
  13.440         58.33	     8.367
  13.460         50.00	     7.746
  13.480         48.33	     7.616
  13.500         43.33	     7.211
  13.520         50.83	     7.810
  13.540         44.17	     7.280
  13.560         48.33	     7.616
  13.580         48.33	     7.616
  13.600         56.67	     8.246
  13.620         46.67	     7.483
  13.640         55.00	     8.124
  13.660         45.83	     7.416
  13.680         45.00	     7.348
  13.700         35.00	     6.481
  13.720         44.17	     7.280
  13.740         50.83	     7.810
  13.760         41.67	     7.071
  13.780         44.17	     7.280
  13.800         45.83	     7.416
  13.820         49.17	     7.681
  13.840         57.50	     8.307
  13.860         60.00	     8.485
  13.880         54.17	     8.062
  13.900         59.17	     8.426
  13.920         55.83	     8.185
  13.940         74.17	     9.434
  13.960         40.00	     6.928
  13.980         59.17	     8.426
  14.000         69.17	     9.110
  14.020         63.33	     8.718
  14.040         73.33	     9.381
  14.060         75.00	     9.487
  14.080         66.67	     8.944
  14.100         79.17	     9.747
  14.120         76.67	     9.592
  14.140         77.50	     9.644
  14.160         78.33	     9.695
  14.180         46.67	     7.483
  14.200         55.00	     8.124
  14.220         46.67	     7.483
  14.240         55.00	     8.124
  14.260         50.00	     7.746
  14.280         51.67	     7.874
  14.300         52.50	     7.937
  14.320         50.83	     7.810
  14.340         37.50	     6.708
  14.360         38.33	     6.782
  14.380         43.33	     7.211
  14.400         40.83	     7.000
