
Filename:
	C:\Program Files\Thermo Electron\WinXRD\Datafiles\F_HERMAN\GEO\GG_18_SFT.raw

File Created:
	October 14, 2020 - 02:05 AM

Specimen Id:
	GG_18_SFT

Specimen Name:
	

Specimen Description:
	

Comment:
Scan Type: 2Theta Scan
Start Angle: 3 deg.
Stop Angle: 65 deg.
Num Points: 3101
Step Size: 0.02 deg.
Scan Rate: 1.000000
Scan Mode: Continuous
Wavelength: 1.540562
\Kalpha1: 1.540562	\Kalpha2: 1.544390	\Kbeta: 1.392218

Optics:
		Detector:
			 Type: Fixed Slits
		Tube: 
			 Type: Fixed Slits


Datas:
 Pos [deg]       Rate [CPS]      ESD [-]

Range 1 ---> Iteration 1
   3.000        378.33	    21.307
   3.020        379.17	    21.331
   3.040        394.17	    21.749
   3.060        395.00	    21.772
   3.080        393.33	    21.726
   3.100        371.67	    21.119
   3.120        414.17	    22.293
   3.140        376.67	    21.260
   3.160        350.83	    20.518
   3.180        345.00	    20.347
   3.200        375.00	    21.213
   3.220        358.33	    20.736
   3.240        348.33	    20.445
   3.260        356.67	    20.688
   3.280        337.50	    20.125
   3.300        333.33	    20.000
   3.320        361.67	    20.833
   3.340        394.17	    21.749
   3.360        360.83	    20.809
   3.380        331.67	    19.950
   3.400        345.83	    20.372
   3.420        346.67	    20.396
   3.440        331.67	    19.950
   3.460        334.17	    20.025
   3.480        341.67	    20.248
   3.500        343.33	    20.298
   3.520        336.67	    20.100
   3.540        325.00	    19.748
   3.560        335.00	    20.050
   3.580        324.17	    19.723
   3.600        338.33	    20.149
   3.620        325.83	    19.774
   3.640        315.83	    19.468
   3.660        304.17	    19.105
   3.680        294.17	    18.788
   3.700        303.33	    19.079
   3.720        295.00	    18.815
   3.740        308.33	    19.235
   3.760        309.17	    19.261
   3.780        286.67	    18.547
   3.800        296.67	    18.868
   3.820        324.17	    19.723
   3.840        316.67	    19.494
   3.860        283.33	    18.439
   3.880        317.50	    19.519
   3.900        300.00	    18.974
   3.920        285.00	    18.493
   3.940        271.67	    18.055
   3.960        287.50	    18.574
   3.980        279.17	    18.303
   4.000        265.83	    17.861
   4.020        252.50	    17.407
   4.040        257.50	    17.578
   4.060        301.67	    19.026
   4.080        247.50	    17.234
   4.100        276.67	    18.221
   4.120        248.33	    17.263
   4.140        270.00	    18.000
   4.160        278.33	    18.276
   4.180        288.33	    18.601
   4.200        252.50	    17.407
   4.220        261.67	    17.720
   4.240        265.83	    17.861
   4.260        242.50	    17.059
   4.280        255.83	    17.521
   4.300        246.67	    17.205
   4.320        270.83	    18.028
   4.340        233.33	    16.733
   4.360        263.33	    17.776
   4.380        254.17	    17.464
   4.400        247.50	    17.234
   4.420        251.67	    17.378
   4.440        239.17	    16.941
   4.460        253.33	    17.436
   4.480        260.83	    17.692
   4.500        235.00	    16.793
   4.520        232.50	    16.703
   4.540        234.17	    16.763
   4.560        235.83	    16.823
   4.580        250.83	    17.349
   4.600        226.67	    16.492
   4.620        239.17	    16.941
   4.640        232.50	    16.703
   4.660        198.33	    15.427
   4.680        222.50	    16.340
   4.700        234.17	    16.763
   4.720        217.50	    16.155
   4.740        227.50	    16.523
   4.760        210.83	    15.906
   4.780        245.00	    17.146
   4.800        255.83	    17.521
   4.820        219.17	    16.217
   4.840        226.67	    16.492
   4.860        234.17	    16.763
   4.880        227.50	    16.523
   4.900        208.33	    15.811
   4.920        229.17	    16.583
   4.940        212.50	    15.969
   4.960        209.17	    15.843
   4.980        210.83	    15.906
   5.000        233.33	    16.733
   5.020        222.50	    16.340
   5.040        200.00	    15.492
   5.060        194.17	    15.264
   5.080        230.00	    16.613
   5.100        230.83	    16.643
   5.120        180.83	    14.731
   5.140        190.00	    15.100
   5.160        219.17	    16.217
   5.180        208.33	    15.811
   5.200        174.17	    14.457
   5.220        210.00	    15.875
   5.240        202.50	    15.588
   5.260        197.50	    15.395
   5.280        205.00	    15.684
   5.300        215.00	    16.062
   5.320        205.83	    15.716
   5.340        210.83	    15.906
   5.360        190.00	    15.100
   5.380        223.33	    16.371
   5.400        209.17	    15.843
   5.420        210.83	    15.906
   5.440        209.17	    15.843
   5.460        190.00	    15.100
   5.480        188.33	    15.033
   5.500        206.67	    15.748
   5.520        217.50	    16.155
   5.540        205.00	    15.684
   5.560        191.67	    15.166
   5.580        193.33	    15.232
   5.600        182.50	    14.799
   5.620        180.00	    14.697
   5.640        175.83	    14.526
   5.660        189.17	    15.067
   5.680        197.50	    15.395
   5.700        194.17	    15.264
   5.720        197.50	    15.395
   5.740        171.67	    14.353
   5.760        205.00	    15.684
   5.780        187.50	    15.000
   5.800        211.67	    15.937
   5.820        216.67	    16.125
   5.840        230.83	    16.643
   5.860        214.17	    16.031
   5.880        229.17	    16.583
   5.900        211.67	    15.937
   5.920        220.00	    16.248
   5.940        209.17	    15.843
   5.960        230.00	    16.613
   5.980        252.50	    17.407
   6.000        261.67	    17.720
   6.020        265.83	    17.861
   6.040        272.50	    18.083
   6.060        277.50	    18.248
   6.080        307.50	    19.209
   6.100        266.67	    17.889
   6.120        285.83	    18.520
   6.140        274.17	    18.138
   6.160        260.83	    17.692
   6.180        279.17	    18.303
   6.200        231.67	    16.673
   6.220        273.33	    18.111
   6.240        255.00	    17.493
   6.260        283.33	    18.439
   6.280        287.50	    18.574
   6.300        319.17	    19.570
   6.320        285.83	    18.520
   6.340        305.00	    19.131
   6.360        265.00	    17.833
   6.380        229.17	    16.583
   6.400        203.33	    15.620
   6.420        186.67	    14.967
   6.440        200.00	    15.492
   6.460        160.00	    13.856
   6.480        199.17	    15.460
   6.500        179.17	    14.663
   6.520        173.33	    14.422
   6.540        191.67	    15.166
   6.560        180.00	    14.697
   6.580        161.67	    13.928
   6.600        189.17	    15.067
   6.620        179.17	    14.663
   6.640        160.00	    13.856
   6.660        170.00	    14.283
   6.680        168.33	    14.213
   6.700        175.00	    14.491
   6.720        165.00	    14.071
   6.740        145.83	    13.229
   6.760        157.50	    13.748
   6.780        163.33	    14.000
   6.800        157.50	    13.748
   6.820        170.00	    14.283
   6.840        157.50	    13.748
   6.860        155.00	    13.638
   6.880        170.00	    14.283
   6.900        151.67	    13.491
   6.920        171.67	    14.353
   6.940        151.67	    13.491
   6.960        186.67	    14.967
   6.980        152.50	    13.528
   7.000        155.00	    13.638
   7.020        161.67	    13.928
   7.040        170.83	    14.318
   7.060        143.33	    13.115
   7.080        153.33	    13.565
   7.100        154.17	    13.601
   7.120        143.33	    13.115
   7.140        152.50	    13.528
   7.160        160.00	    13.856
   7.180        146.67	    13.266
   7.200        147.50	    13.304
   7.220        155.00	    13.638
   7.240        148.33	    13.342
   7.260        139.17	    12.923
   7.280        132.50	    12.610
   7.300        148.33	    13.342
   7.320        147.50	    13.304
   7.340        133.33	    12.649
   7.360        165.83	    14.107
   7.380        168.33	    14.213
   7.400        156.67	    13.711
   7.420        135.83	    12.767
   7.440        154.17	    13.601
   7.460        159.17	    13.820
   7.480        152.50	    13.528
   7.500        150.83	    13.454
   7.520        147.50	    13.304
   7.540        155.00	    13.638
   7.560        171.67	    14.353
   7.580        127.50	    12.369
   7.600        142.50	    13.077
   7.620        150.00	    13.416
   7.640        120.83	    12.042
   7.660        126.67	    12.329
   7.680        158.33	    13.784
   7.700        164.17	    14.036
   7.720        145.83	    13.229
   7.740        164.17	    14.036
   7.760        149.17	    13.379
   7.780        146.67	    13.266
   7.800        150.00	    13.416
   7.820        151.67	    13.491
   7.840        135.00	    12.728
   7.860        130.83	    12.530
   7.880        148.33	    13.342
   7.900        148.33	    13.342
   7.920        158.33	    13.784
   7.940        145.00	    13.191
   7.960        151.67	    13.491
   7.980        130.83	    12.530
   8.000        145.00	    13.191
   8.020        141.67	    13.038
   8.040        138.33	    12.884
   8.060        147.50	    13.304
   8.080        143.33	    13.115
   8.100        162.50	    13.964
   8.120        186.67	    14.967
   8.140        154.17	    13.601
   8.160        156.67	    13.711
   8.180        145.83	    13.229
   8.200        145.83	    13.229
   8.220        152.50	    13.528
   8.240        142.50	    13.077
   8.260        174.17	    14.457
   8.280        175.83	    14.526
   8.300        172.50	    14.387
   8.320        166.67	    14.142
   8.340        196.67	    15.362
   8.360        188.33	    15.033
   8.380        180.83	    14.731
   8.400        177.50	    14.595
   8.420        196.67	    15.362
   8.440        204.17	    15.652
   8.460        185.83	    14.933
   8.480        195.00	    15.297
   8.500        219.17	    16.217
   8.520        221.67	    16.310
   8.540        187.50	    15.000
   8.560        223.33	    16.371
   8.580        250.00	    17.321
   8.600        235.00	    16.793
   8.620        244.17	    17.117
   8.640        244.17	    17.117
   8.660        274.17	    18.138
   8.680        281.67	    18.385
   8.700        282.50	    18.412
   8.720        328.33	    19.849
   8.740        319.17	    19.570
   8.760        345.00	    20.347
   8.780        380.00	    21.354
   8.800        412.50	    22.249
   8.820        477.50	    23.937
   8.840        490.83	    24.269
   8.860        522.50	    25.040
   8.880        633.33	    27.568
   8.900        783.33	    30.659
   8.920        823.33	    31.432
   8.940        995.83	    34.569
   8.960        965.00	    34.029
   8.980        795.83	    30.903
   9.000        624.17	    27.368
   9.020        415.00	    22.316
   9.040        319.17	    19.570
   9.060        271.67	    18.055
   9.080        235.83	    16.823
   9.100        202.50	    15.588
   9.120        204.17	    15.652
   9.140        167.50	    14.177
   9.160        159.17	    13.820
   9.180        155.83	    13.675
   9.200        170.00	    14.283
   9.220        157.50	    13.748
   9.240        177.50	    14.595
   9.260        135.83	    12.767
   9.280        150.00	    13.416
   9.300        128.33	    12.410
   9.320        154.17	    13.601
   9.340        151.67	    13.491
   9.360        129.17	    12.450
   9.380        127.50	    12.369
   9.400        141.67	    13.038
   9.420        140.00	    12.961
   9.440        130.00	    12.490
   9.460        134.17	    12.689
   9.480        175.00	    14.491
   9.500        153.33	    13.565
   9.520        163.33	    14.000
   9.540        165.83	    14.107
   9.560        154.17	    13.601
   9.580        123.33	    12.166
   9.600        120.00	    12.000
   9.620        114.17	    11.705
   9.640        104.17	    11.180
   9.660        122.50	    12.124
   9.680        100.00	    10.954
   9.700         95.83	    10.724
   9.720         97.50	    10.817
   9.740        104.17	    11.180
   9.760         91.67	    10.488
   9.780        106.67	    11.314
   9.800        122.50	    12.124
   9.820        115.00	    11.747
   9.840         97.50	    10.817
   9.860        119.17	    11.958
   9.880        107.50	    11.358
   9.900        110.83	    11.533
   9.920        101.67	    11.045
   9.940        101.67	    11.045
   9.960        110.00	    11.489
   9.980        102.50	    11.091
  10.000         94.17	    10.630
  10.020        100.83	    11.000
  10.040         98.33	    10.863
  10.060         88.33	    10.296
  10.080         77.50	     9.644
  10.100         80.83	     9.849
  10.120         86.67	    10.198
  10.140         88.33	    10.296
  10.160        102.50	    11.091
  10.180         75.83	     9.539
  10.200         86.67	    10.198
  10.220         90.00	    10.392
  10.240         94.17	    10.630
  10.260         88.33	    10.296
  10.280         91.67	    10.488
  10.300         97.50	    10.817
  10.320         91.67	    10.488
  10.340         81.67	     9.899
  10.360         80.83	     9.849
  10.380         85.00	    10.100
  10.400         90.83	    10.440
  10.420         94.17	    10.630
  10.440        100.83	    11.000
  10.460         96.67	    10.770
  10.480        119.17	    11.958
  10.500         81.67	     9.899
  10.520         98.33	    10.863
  10.540        122.50	    12.124
  10.560        140.00	    12.961
  10.580        138.33	    12.884
  10.600        156.67	    13.711
  10.620        167.50	    14.177
  10.640        143.33	    13.115
  10.660        138.33	    12.884
  10.680        119.17	    11.958
  10.700        110.83	    11.533
  10.720         90.00	    10.392
  10.740         70.00	     9.165
  10.760         90.83	    10.440
  10.780         83.33	    10.000
  10.800         85.83	    10.149
  10.820         81.67	     9.899
  10.840         60.00	     8.485
  10.860         75.83	     9.539
  10.880         85.83	    10.149
  10.900         87.50	    10.247
  10.920         77.50	     9.644
  10.940         85.00	    10.100
  10.960         79.17	     9.747
  10.980         70.83	     9.220
  11.000         80.83	     9.849
  11.020         74.17	     9.434
  11.040         77.50	     9.644
  11.060         97.50	    10.817
  11.080         90.00	    10.392
  11.100         96.67	    10.770
  11.120         83.33	    10.000
  11.140         72.50	     9.327
  11.160        101.67	    11.045
  11.180         75.00	     9.487
  11.200         69.17	     9.110
  11.220         75.83	     9.539
  11.240         79.17	     9.747
  11.260         65.83	     8.888
  11.280         80.83	     9.849
  11.300         73.33	     9.381
  11.320         92.50	    10.536
  11.340         71.67	     9.274
  11.360         81.67	     9.899
  11.380         80.00	     9.798
  11.400         84.17	    10.050
  11.420         78.33	     9.695
  11.440         73.33	     9.381
  11.460         76.67	     9.592
  11.480         80.00	     9.798
  11.500         89.17	    10.344
  11.520         82.50	     9.950
  11.540         68.33	     9.055
  11.560         70.83	     9.220
  11.580         85.83	    10.149
  11.600         95.00	    10.677
  11.620         80.83	     9.849
  11.640         80.83	     9.849
  11.660         86.67	    10.198
  11.680         80.83	     9.849
  11.700         86.67	    10.198
  11.720         96.67	    10.770
  11.740         75.83	     9.539
  11.760         87.50	    10.247
  11.780         71.67	     9.274
  11.800        101.67	    11.045
  11.820         80.83	     9.849
  11.840         95.00	    10.677
  11.860         80.00	     9.798
  11.880         96.67	    10.770
  11.900         79.17	     9.747
  11.920         97.50	    10.817
  11.940         92.50	    10.536
  11.960         86.67	    10.198
  11.980        105.00	    11.225
  12.000        102.50	    11.091
  12.020        107.50	    11.358
  12.040        120.83	    12.042
  12.060        117.50	    11.874
  12.080        139.17	    12.923
  12.100        145.00	    13.191
  12.120        155.83	    13.675
  12.140        170.00	    14.283
  12.160        193.33	    15.232
  12.180        286.67	    18.547
  12.200        317.50	    19.519
  12.220        422.50	    22.517
  12.240        610.83	    27.074
  12.260        676.67	    28.496
  12.280        688.33	    28.740
  12.300        550.00	    25.690
  12.320        416.67	    22.361
  12.340        355.83	    20.664
  12.360        253.33	    17.436
  12.380        284.17	    18.466
  12.400        280.00	    18.330
  12.420        285.00	    18.493
  12.440        295.83	    18.841
  12.460        285.00	    18.493
  12.480        295.00	    18.815
  12.500        364.17	    20.905
  12.520        451.67	    23.281
  12.540        490.83	    24.269
  12.560        547.50	    25.632
  12.580        558.33	    25.884
  12.600        503.33	    24.576
  12.620        415.00	    22.316
  12.640        267.50	    17.916
  12.660        199.17	    15.460
  12.680        150.83	    13.454
  12.700        141.67	    13.038
  12.720        116.67	    11.832
  12.740        103.33	    11.136
  12.760        110.83	    11.533
  12.780         99.17	    10.909
  12.800         94.17	    10.630
  12.820         75.00	     9.487
  12.840         85.00	    10.100
  12.860         86.67	    10.198
  12.880         75.00	     9.487
  12.900         89.17	    10.344
  12.920         70.00	     9.165
  12.940         76.67	     9.592
  12.960         60.83	     8.544
  12.980         83.33	    10.000
  13.000         71.67	     9.274
  13.020         72.50	     9.327
  13.040         69.17	     9.110
  13.060         63.33	     8.718
  13.080         55.83	     8.185
  13.100         60.83	     8.544
  13.120         61.67	     8.602
  13.140         83.33	    10.000
  13.160         78.33	     9.695
  13.180         69.17	     9.110
  13.200         80.83	     9.849
  13.220         74.17	     9.434
  13.240         65.00	     8.832
  13.260         68.33	     9.055
  13.280         70.00	     9.165
  13.300         70.83	     9.220
  13.320         64.17	     8.775
  13.340         78.33	     9.695
  13.360         69.17	     9.110
  13.380         67.50	     9.000
  13.400         74.17	     9.434
  13.420         79.17	     9.747
  13.440         70.83	     9.220
  13.460         67.50	     9.000
  13.480         65.00	     8.832
  13.500         65.00	     8.832
  13.520         80.00	     9.798
  13.540         74.17	     9.434
  13.560         76.67	     9.592
  13.580         61.67	     8.602
  13.600         67.50	     9.000
  13.620         73.33	     9.381
  13.640         63.33	     8.718
  13.660         80.00	     9.798
  13.680         84.17	    10.050
  13.700         62.50	     8.660
  13.720         84.17	    10.050
  13.740         75.83	     9.539
  13.760         76.67	     9.592
  13.780         78.33	     9.695
  13.800         75.83	     9.539
  13.820         65.83	     8.888
  13.840         67.50	     9.000
  13.860         86.67	    10.198
  13.880         99.17	    10.909
  13.900        116.67	    11.832
  13.920        100.83	    11.000
  13.940        110.00	    11.489
  13.960         99.17	    10.909
  13.980         95.83	    10.724
  14.000         75.83	     9.539
  14.020         62.50	     8.660
  14.040         68.33	     9.055
  14.060         61.67	     8.602
  14.080         75.00	     9.487
  14.100         69.17	     9.110
  14.120         51.67	     7.874
  14.140         55.83	     8.185
  14.160         55.00	     8.124
  14.180         66.67	     8.944
  14.200         61.67	     8.602
  14.220         51.67	     7.874
  14.240         54.17	     8.062
  14.260         62.50	     8.660
  14.280         70.00	     9.165
  14.300         56.67	     8.246
  14.320         58.33	     8.367
  14.340         53.33	     8.000
  14.360         64.17	     8.775
  14.380         61.67	     8.602
  14.400         48.33	     7.616
