
Filename:
	C:\Program Files\Thermo Electron\WinXRD\Datafiles\F_HERMAN\GEO\GG_15_SFT.raw

File Created:
	October 13, 2020 - 03:27 PM

Specimen Id:
	GG15 SFT

Specimen Name:
	

Specimen Description:
	

Comment:
Scan Type: 2Theta Scan
Start Angle: 3 deg.
Stop Angle: 65 deg.
Num Points: 3101
Step Size: 0.02 deg.
Scan Rate: 1.000000
Scan Mode: Continuous
Wavelength: 1.540562
\Kalpha1: 1.540562	\Kalpha2: 1.544390	\Kbeta: 1.392218

Optics:
		Detector:
			 Type: Fixed Slits
		Tube: 
			 Type: Fixed Slits


Datas:
 Pos [deg]       Rate [CPS]      ESD [-]

Range 1 ---> Iteration 1
   3.000        279.17	    18.303
   3.020        291.67	    18.708
   3.040        306.67	    19.183
   3.060        294.17	    18.788
   3.080        271.67	    18.055
   3.100        268.33	    17.944
   3.120        290.00	    18.655
   3.140        277.50	    18.248
   3.160        290.00	    18.655
   3.180        268.33	    17.944
   3.200        254.17	    17.464
   3.220        268.33	    17.944
   3.240        252.50	    17.407
   3.260        247.50	    17.234
   3.280        256.67	    17.550
   3.300        269.17	    17.972
   3.320        268.33	    17.944
   3.340        258.33	    17.607
   3.360        251.67	    17.378
   3.380        275.00	    18.166
   3.400        258.33	    17.607
   3.420        234.17	    16.763
   3.440        244.17	    17.117
   3.460        239.17	    16.941
   3.480        230.00	    16.613
   3.500        230.83	    16.643
   3.520        245.83	    17.176
   3.540        237.50	    16.882
   3.560        216.67	    16.125
   3.580        229.17	    16.583
   3.600        250.00	    17.321
   3.620        262.50	    17.748
   3.640        235.00	    16.793
   3.660        236.67	    16.852
   3.680        215.83	    16.093
   3.700        214.17	    16.031
   3.720        228.33	    16.553
   3.740        235.00	    16.793
   3.760        221.67	    16.310
   3.780        218.33	    16.186
   3.800        226.67	    16.492
   3.820        209.17	    15.843
   3.840        233.33	    16.733
   3.860        207.50	    15.780
   3.880        213.33	    16.000
   3.900        190.83	    15.133
   3.920        225.00	    16.432
   3.940        240.83	    17.000
   3.960        210.83	    15.906
   3.980        197.50	    15.395
   4.000        215.83	    16.093
   4.020        203.33	    15.620
   4.040        182.50	    14.799
   4.060        197.50	    15.395
   4.080        198.33	    15.427
   4.100        205.00	    15.684
   4.120        190.83	    15.133
   4.140        192.50	    15.199
   4.160        205.00	    15.684
   4.180        191.67	    15.166
   4.200        200.83	    15.524
   4.220        200.83	    15.524
   4.240        193.33	    15.232
   4.260        218.33	    16.186
   4.280        184.17	    14.866
   4.300        205.83	    15.716
   4.320        195.83	    15.330
   4.340        184.17	    14.866
   4.360        184.17	    14.866
   4.380        194.17	    15.264
   4.400        180.83	    14.731
   4.420        168.33	    14.213
   4.440        184.17	    14.866
   4.460        180.83	    14.731
   4.480        178.33	    14.629
   4.500        184.17	    14.866
   4.520        161.67	    13.928
   4.540        187.50	    15.000
   4.560        171.67	    14.353
   4.580        182.50	    14.799
   4.600        151.67	    13.491
   4.620        190.83	    15.133
   4.640        175.83	    14.526
   4.660        169.17	    14.248
   4.680        178.33	    14.629
   4.700        163.33	    14.000
   4.720        170.00	    14.283
   4.740        176.67	    14.560
   4.760        163.33	    14.000
   4.780        181.67	    14.765
   4.800        165.00	    14.071
   4.820        175.83	    14.526
   4.840        172.50	    14.387
   4.860        154.17	    13.601
   4.880        150.00	    13.416
   4.900        163.33	    14.000
   4.920        147.50	    13.304
   4.940        160.83	    13.892
   4.960        160.00	    13.856
   4.980        153.33	    13.565
   5.000        175.00	    14.491
   5.020        159.17	    13.820
   5.040        153.33	    13.565
   5.060        160.00	    13.856
   5.080        148.33	    13.342
   5.100        147.50	    13.304
   5.120        165.83	    14.107
   5.140        150.83	    13.454
   5.160        143.33	    13.115
   5.180        127.50	    12.369
   5.200        164.17	    14.036
   5.220        149.17	    13.379
   5.240        147.50	    13.304
   5.260        146.67	    13.266
   5.280        150.83	    13.454
   5.300        126.67	    12.329
   5.320        145.83	    13.229
   5.340        162.50	    13.964
   5.360        158.33	    13.784
   5.380        159.17	    13.820
   5.400        156.67	    13.711
   5.420        167.50	    14.177
   5.440        140.00	    12.961
   5.460        141.67	    13.038
   5.480        142.50	    13.077
   5.500        135.83	    12.767
   5.520        155.00	    13.638
   5.540        157.50	    13.748
   5.560        136.67	    12.806
   5.580        141.67	    13.038
   5.600        131.67	    12.570
   5.620        116.67	    11.832
   5.640        132.50	    12.610
   5.660        150.00	    13.416
   5.680        136.67	    12.806
   5.700        140.00	    12.961
   5.720        128.33	    12.410
   5.740        143.33	    13.115
   5.760        129.17	    12.450
   5.780        140.83	    13.000
   5.800        138.33	    12.884
   5.820        133.33	    12.649
   5.840        115.83	    11.790
   5.860        142.50	    13.077
   5.880        127.50	    12.369
   5.900        127.50	    12.369
   5.920        128.33	    12.410
   5.940        140.83	    13.000
   5.960        135.83	    12.767
   5.980        134.17	    12.689
   6.000        115.00	    11.747
   6.020        115.00	    11.747
   6.040        124.17	    12.207
   6.060        142.50	    13.077
   6.080        120.83	    12.042
   6.100        135.83	    12.767
   6.120        125.83	    12.288
   6.140        140.83	    13.000
   6.160        142.50	    13.077
   6.180        110.83	    11.533
   6.200        136.67	    12.806
   6.220        145.83	    13.229
   6.240        147.50	    13.304
   6.260        161.67	    13.928
   6.280        176.67	    14.560
   6.300        171.67	    14.353
   6.320        167.50	    14.177
   6.340        135.83	    12.767
   6.360        148.33	    13.342
   6.380        148.33	    13.342
   6.400        146.67	    13.266
   6.420        150.00	    13.416
   6.440        144.17	    13.153
   6.460        151.67	    13.491
   6.480        155.83	    13.675
   6.500        146.67	    13.266
   6.520        130.00	    12.490
   6.540        134.17	    12.689
   6.560        127.50	    12.369
   6.580        126.67	    12.329
   6.600        136.67	    12.806
   6.620        126.67	    12.329
   6.640        115.83	    11.790
   6.660        125.83	    12.288
   6.680        106.67	    11.314
   6.700        117.50	    11.874
   6.720        115.83	    11.790
   6.740        108.33	    11.402
   6.760        111.67	    11.576
   6.780        120.83	    12.042
   6.800        117.50	    11.874
   6.820        120.00	    12.000
   6.840        111.67	    11.576
   6.860        102.50	    11.091
   6.880         98.33	    10.863
   6.900        116.67	    11.832
   6.920         95.00	    10.677
   6.940         92.50	    10.536
   6.960        111.67	    11.576
   6.980         92.50	    10.536
   7.000        101.67	    11.045
   7.020        106.67	    11.314
   7.040        104.17	    11.180
   7.060         98.33	    10.863
   7.080         86.67	    10.198
   7.100        112.50	    11.619
   7.120        110.83	    11.533
   7.140        100.83	    11.000
   7.160        120.00	    12.000
   7.180        100.00	    10.954
   7.200        110.83	    11.533
   7.220        102.50	    11.091
   7.240         93.33	    10.583
   7.260         99.17	    10.909
   7.280         95.00	    10.677
   7.300         94.17	    10.630
   7.320         90.83	    10.440
   7.340        101.67	    11.045
   7.360         90.00	    10.392
   7.380        103.33	    11.136
   7.400        112.50	    11.619
   7.420         89.17	    10.344
   7.440         94.17	    10.630
   7.460         99.17	    10.909
   7.480         85.83	    10.149
   7.500        103.33	    11.136
   7.520         88.33	    10.296
   7.540        107.50	    11.358
   7.560         81.67	     9.899
   7.580         85.00	    10.100
   7.600         86.67	    10.198
   7.620         90.00	    10.392
   7.640         85.00	    10.100
   7.660         89.17	    10.344
   7.680         78.33	     9.695
   7.700         82.50	     9.950
   7.720         76.67	     9.592
   7.740        100.00	    10.954
   7.760         84.17	    10.050
   7.780        101.67	    11.045
   7.800         84.17	    10.050
   7.820         96.67	    10.770
   7.840        102.50	    11.091
   7.860         86.67	    10.198
   7.880         97.50	    10.817
   7.900         73.33	     9.381
   7.920         90.83	    10.440
   7.940         87.50	    10.247
   7.960         68.33	     9.055
   7.980         82.50	     9.950
   8.000         85.00	    10.100
   8.020         90.83	    10.440
   8.040         76.67	     9.592
   8.060         74.17	     9.434
   8.080         83.33	    10.000
   8.100         81.67	     9.899
   8.120         94.17	    10.630
   8.140         77.50	     9.644
   8.160         83.33	    10.000
   8.180         94.17	    10.630
   8.200         86.67	    10.198
   8.220         90.00	    10.392
   8.240         94.17	    10.630
   8.260         92.50	    10.536
   8.280         87.50	    10.247
   8.300         76.67	     9.592
   8.320         73.33	     9.381
   8.340         73.33	     9.381
   8.360         64.17	     8.775
   8.380         80.83	     9.849
   8.400         89.17	    10.344
   8.420         80.83	     9.849
   8.440         78.33	     9.695
   8.460         88.33	    10.296
   8.480         72.50	     9.327
   8.500         75.00	     9.487
   8.520         76.67	     9.592
   8.540         77.50	     9.644
   8.560         68.33	     9.055
   8.580         81.67	     9.899
   8.600         78.33	     9.695
   8.620         72.50	     9.327
   8.640         84.17	    10.050
   8.660         66.67	     8.944
   8.680         60.83	     8.544
   8.700         90.00	    10.392
   8.720         75.00	     9.487
   8.740         77.50	     9.644
   8.760         73.33	     9.381
   8.780         76.67	     9.592
   8.800         88.33	    10.296
   8.820         89.17	    10.344
   8.840         80.00	     9.798
   8.860         70.00	     9.165
   8.880         79.17	     9.747
   8.900         85.00	    10.100
   8.920         84.17	    10.050
   8.940         83.33	    10.000
   8.960         80.83	     9.849
   8.980         90.83	    10.440
   9.000         98.33	    10.863
   9.020         98.33	    10.863
   9.040        100.83	    11.000
   9.060        117.50	    11.874
   9.080        125.83	    12.288
   9.100        143.33	    13.115
   9.120        169.17	    14.248
   9.140        170.00	    14.283
   9.160        155.00	    13.638
   9.180        180.00	    14.697
   9.200        155.00	    13.638
   9.220        131.67	    12.570
   9.240         97.50	    10.817
   9.260         85.83	    10.149
   9.280         80.00	     9.798
   9.300         86.67	    10.198
   9.320         87.50	    10.247
   9.340         75.00	     9.487
   9.360         65.83	     8.888
   9.380         76.67	     9.592
   9.400         80.00	     9.798
   9.420         69.17	     9.110
   9.440         75.83	     9.539
   9.460         71.67	     9.274
   9.480         80.00	     9.798
   9.500         72.50	     9.327
   9.520         72.50	     9.327
   9.540         70.83	     9.220
   9.560         73.33	     9.381
   9.580         64.17	     8.775
   9.600         60.00	     8.485
   9.620         77.50	     9.644
   9.640         64.17	     8.775
   9.660         79.17	     9.747
   9.680         74.17	     9.434
   9.700         68.33	     9.055
   9.720         74.17	     9.434
   9.740         74.17	     9.434
   9.760         80.83	     9.849
   9.780         73.33	     9.381
   9.800         53.33	     8.000
   9.820         68.33	     9.055
   9.840         62.50	     8.660
   9.860         60.00	     8.485
   9.880         73.33	     9.381
   9.900         69.17	     9.110
   9.920         67.50	     9.000
   9.940         66.67	     8.944
   9.960         64.17	     8.775
   9.980         65.83	     8.888
  10.000         47.50	     7.550
  10.020         63.33	     8.718
  10.040         71.67	     9.274
  10.060         68.33	     9.055
  10.080         59.17	     8.426
  10.100         71.67	     9.274
  10.120         55.83	     8.185
  10.140         68.33	     9.055
  10.160         67.50	     9.000
  10.180         65.00	     8.832
  10.200         75.00	     9.487
  10.220         74.17	     9.434
  10.240         68.33	     9.055
  10.260         70.83	     9.220
  10.280         52.50	     7.937
  10.300         70.00	     9.165
  10.320         66.67	     8.944
  10.340         48.33	     7.616
  10.360         53.33	     8.000
  10.380         64.17	     8.775
  10.400         45.83	     7.416
  10.420         68.33	     9.055
  10.440         44.17	     7.280
  10.460         52.50	     7.937
  10.480         55.00	     8.124
  10.500         63.33	     8.718
  10.520         48.33	     7.616
  10.540         57.50	     8.307
  10.560         60.83	     8.544
  10.580         66.67	     8.944
  10.600         52.50	     7.937
  10.620         69.17	     9.110
  10.640         53.33	     8.000
  10.660         64.17	     8.775
  10.680         62.50	     8.660
  10.700         63.33	     8.718
  10.720         70.00	     9.165
  10.740         81.67	     9.899
  10.760         65.83	     8.888
  10.780         65.00	     8.832
  10.800         69.17	     9.110
  10.820         78.33	     9.695
  10.840         69.17	     9.110
  10.860         64.17	     8.775
  10.880         67.50	     9.000
  10.900         54.17	     8.062
  10.920         64.17	     8.775
  10.940         50.00	     7.746
  10.960         55.83	     8.185
  10.980         62.50	     8.660
  11.000         64.17	     8.775
  11.020         63.33	     8.718
  11.040         64.17	     8.775
  11.060         74.17	     9.434
  11.080         49.17	     7.681
  11.100         54.17	     8.062
  11.120         44.17	     7.280
  11.140         54.17	     8.062
  11.160         45.00	     7.348
  11.180         50.00	     7.746
  11.200         55.83	     8.185
  11.220         60.00	     8.485
  11.240         66.67	     8.944
  11.260         38.33	     6.782
  11.280         56.67	     8.246
  11.300         60.00	     8.485
  11.320         53.33	     8.000
  11.340         44.17	     7.280
  11.360         48.33	     7.616
  11.380         67.50	     9.000
  11.400         54.17	     8.062
  11.420         62.50	     8.660
  11.440         55.83	     8.185
  11.460         43.33	     7.211
  11.480         51.67	     7.874
  11.500         47.50	     7.550
  11.520         54.17	     8.062
  11.540         53.33	     8.000
  11.560         56.67	     8.246
  11.580         47.50	     7.550
  11.600         47.50	     7.550
  11.620         46.67	     7.483
  11.640         57.50	     8.307
  11.660         43.33	     7.211
  11.680         55.83	     8.185
  11.700         48.33	     7.616
  11.720         40.83	     7.000
  11.740         56.67	     8.246
  11.760         49.17	     7.681
  11.780         40.00	     6.928
  11.800         55.83	     8.185
  11.820         50.00	     7.746
  11.840         45.00	     7.348
  11.860         56.67	     8.246
  11.880         42.50	     7.141
  11.900         55.83	     8.185
  11.920         51.67	     7.874
  11.940         55.83	     8.185
  11.960         44.17	     7.280
  11.980         55.00	     8.124
  12.000         53.33	     8.000
  12.020         45.00	     7.348
  12.040         54.17	     8.062
  12.060         63.33	     8.718
  12.080         50.83	     7.810
  12.100         63.33	     8.718
  12.120         55.83	     8.185
  12.140         45.83	     7.416
  12.160         57.50	     8.307
  12.180         63.33	     8.718
  12.200         60.00	     8.485
  12.220         50.00	     7.746
  12.240         52.50	     7.937
  12.260         47.50	     7.550
  12.280         69.17	     9.110
  12.300         64.17	     8.775
  12.320         66.67	     8.944
  12.340         71.67	     9.274
  12.360         91.67	    10.488
  12.380         78.33	     9.695
  12.400        141.67	    13.038
  12.420        142.50	    13.077
  12.440        172.50	    14.387
  12.460        230.00	    16.613
  12.480        230.83	    16.643
  12.500        200.00	    15.492
  12.520        144.17	    13.153
  12.540        120.00	    12.000
  12.560        105.00	    11.225
  12.580         91.67	    10.488
  12.600        102.50	    11.091
  12.620        123.33	    12.166
  12.640        117.50	    11.874
  12.660         97.50	    10.817
  12.680        100.00	    10.954
  12.700        115.00	    11.747
  12.720        137.50	    12.845
  12.740        130.00	    12.490
  12.760        161.67	    13.928
  12.780        148.33	    13.342
  12.800        135.83	    12.767
  12.820        120.83	    12.042
  12.840        103.33	    11.136
  12.860         88.33	    10.296
  12.880         71.67	     9.274
  12.900         72.50	     9.327
  12.920         50.00	     7.746
  12.940         60.83	     8.544
  12.960         45.00	     7.348
  12.980         59.17	     8.426
  13.000         49.17	     7.681
  13.020         54.17	     8.062
  13.040         43.33	     7.211
  13.060         45.83	     7.416
  13.080         45.83	     7.416
  13.100         52.50	     7.937
  13.120         45.00	     7.348
  13.140         43.33	     7.211
  13.160         48.33	     7.616
  13.180         50.83	     7.810
  13.200         47.50	     7.550
  13.220         50.83	     7.810
  13.240         37.50	     6.708
  13.260         44.17	     7.280
  13.280         45.00	     7.348
  13.300         39.17	     6.856
  13.320         44.17	     7.280
  13.340         45.83	     7.416
  13.360         50.00	     7.746
  13.380         43.33	     7.211
  13.400         47.50	     7.550
  13.420         39.17	     6.856
  13.440         59.17	     8.426
  13.460         55.83	     8.185
  13.480         47.50	     7.550
  13.500         45.83	     7.416
  13.520         36.67	     6.633
  13.540         47.50	     7.550
  13.560         39.17	     6.856
  13.580         51.67	     7.874
  13.600         50.83	     7.810
  13.620         31.67	     6.164
  13.640         42.50	     7.141
  13.660         44.17	     7.280
  13.680         40.83	     7.000
  13.700         45.83	     7.416
  13.720         34.17	     6.403
  13.740         41.67	     7.071
  13.760         40.00	     6.928
  13.780         50.00	     7.746
  13.800         40.83	     7.000
  13.820         38.33	     6.782
  13.840         42.50	     7.141
  13.860         57.50	     8.307
  13.880         38.33	     6.782
  13.900         45.83	     7.416
  13.920         39.17	     6.856
  13.940         38.33	     6.782
  13.960         51.67	     7.874
  13.980         36.67	     6.633
  14.000         44.17	     7.280
  14.020         47.50	     7.550
  14.040         64.17	     8.775
  14.060         55.00	     8.124
  14.080         76.67	     9.592
  14.100         90.00	    10.392
  14.120         90.00	    10.392
  14.140         85.00	    10.100
  14.160         78.33	     9.695
  14.180         55.83	     8.185
  14.200         48.33	     7.616
  14.220         59.17	     8.426
  14.240         48.33	     7.616
  14.260         46.67	     7.483
  14.280         52.50	     7.937
  14.300         45.83	     7.416
  14.320         43.33	     7.211
  14.340         45.83	     7.416
  14.360         37.50	     6.708
  14.380         34.17	     6.403
  14.400         38.33	     6.782
