
Filename:
	C:\Program Files\Thermo Electron\WinXRD\Datafiles\F_HERMAN\GEO\GG_10_SFT.raw

File Created:
	October 12, 2020 - 07:31 PM

Specimen Id:
	GG_10_SFT

Specimen Name:
	

Specimen Description:
	

Comment:
Scan Type: 2Theta Scan
Start Angle: 3 deg.
Stop Angle: 65 deg.
Num Points: 3101
Step Size: 0.02 deg.
Scan Rate: 1.000000
Scan Mode: Continuous
Wavelength: 1.540562
\Kalpha1: 1.540562	\Kalpha2: 1.544390	\Kbeta: 1.392218

Optics:
		Detector:
			 Type: Fixed Slits
		Tube: 
			 Type: Fixed Slits


Datas:
 Pos [deg]       Rate [CPS]      ESD [-]

Range 1 ---> Iteration 1
   3.000        266.67	    17.889
   3.020        236.67	    16.852
   3.040        223.33	    16.371
   3.060        244.17	    17.117
   3.080        235.00	    16.793
   3.100        236.67	    16.852
   3.120        239.17	    16.941
   3.140        221.67	    16.310
   3.160        236.67	    16.852
   3.180        237.50	    16.882
   3.200        230.00	    16.613
   3.220        240.83	    17.000
   3.240        218.33	    16.186
   3.260        241.67	    17.029
   3.280        224.17	    16.401
   3.300        210.83	    15.906
   3.320        209.17	    15.843
   3.340        217.50	    16.155
   3.360        219.17	    16.217
   3.380        217.50	    16.155
   3.400        230.83	    16.643
   3.420        191.67	    15.166
   3.440        215.83	    16.093
   3.460        189.17	    15.067
   3.480        190.00	    15.100
   3.500        207.50	    15.780
   3.520        215.83	    16.093
   3.540        165.83	    14.107
   3.560        186.67	    14.967
   3.580        177.50	    14.595
   3.600        185.00	    14.900
   3.620        181.67	    14.765
   3.640        198.33	    15.427
   3.660        184.17	    14.866
   3.680        196.67	    15.362
   3.700        189.17	    15.067
   3.720        179.17	    14.663
   3.740        196.67	    15.362
   3.760        194.17	    15.264
   3.780        194.17	    15.264
   3.800        192.50	    15.199
   3.820        200.00	    15.492
   3.840        172.50	    14.387
   3.860        165.83	    14.107
   3.880        185.00	    14.900
   3.900        187.50	    15.000
   3.920        174.17	    14.457
   3.940        168.33	    14.213
   3.960        181.67	    14.765
   3.980        180.83	    14.731
   4.000        174.17	    14.457
   4.020        158.33	    13.784
   4.040        166.67	    14.142
   4.060        180.00	    14.697
   4.080        174.17	    14.457
   4.100        160.00	    13.856
   4.120        182.50	    14.799
   4.140        167.50	    14.177
   4.160        178.33	    14.629
   4.180        142.50	    13.077
   4.200        150.83	    13.454
   4.220        169.17	    14.248
   4.240        142.50	    13.077
   4.260        145.00	    13.191
   4.280        165.00	    14.071
   4.300        161.67	    13.928
   4.320        154.17	    13.601
   4.340        160.00	    13.856
   4.360        157.50	    13.748
   4.380        152.50	    13.528
   4.400        183.33	    14.832
   4.420        158.33	    13.784
   4.440        157.50	    13.748
   4.460        144.17	    13.153
   4.480        140.83	    13.000
   4.500        146.67	    13.266
   4.520        161.67	    13.928
   4.540        143.33	    13.115
   4.560        136.67	    12.806
   4.580        147.50	    13.304
   4.600        143.33	    13.115
   4.620        139.17	    12.923
   4.640        133.33	    12.649
   4.660        150.00	    13.416
   4.680        150.83	    13.454
   4.700        126.67	    12.329
   4.720        145.83	    13.229
   4.740        158.33	    13.784
   4.760        152.50	    13.528
   4.780        131.67	    12.570
   4.800        140.00	    12.961
   4.820        153.33	    13.565
   4.840        156.67	    13.711
   4.860        134.17	    12.689
   4.880        127.50	    12.369
   4.900        153.33	    13.565
   4.920        155.83	    13.675
   4.940        134.17	    12.689
   4.960        145.00	    13.191
   4.980        141.67	    13.038
   5.000        112.50	    11.619
   5.020        126.67	    12.329
   5.040        135.00	    12.728
   5.060        136.67	    12.806
   5.080        126.67	    12.329
   5.100        126.67	    12.329
   5.120        135.83	    12.767
   5.140        140.83	    13.000
   5.160        141.67	    13.038
   5.180        130.83	    12.530
   5.200        126.67	    12.329
   5.220        123.33	    12.166
   5.240        140.00	    12.961
   5.260        125.83	    12.288
   5.280        132.50	    12.610
   5.300        121.67	    12.083
   5.320        125.83	    12.288
   5.340        112.50	    11.619
   5.360        125.83	    12.288
   5.380        123.33	    12.166
   5.400        133.33	    12.649
   5.420        115.00	    11.747
   5.440        133.33	    12.649
   5.460        156.67	    13.711
   5.480        119.17	    11.958
   5.500        120.00	    12.000
   5.520        122.50	    12.124
   5.540        124.17	    12.207
   5.560        108.33	    11.402
   5.580        115.00	    11.747
   5.600        120.83	    12.042
   5.620        103.33	    11.136
   5.640        111.67	    11.576
   5.660        134.17	    12.689
   5.680        126.67	    12.329
   5.700        130.83	    12.530
   5.720        120.00	    12.000
   5.740        117.50	    11.874
   5.760         96.67	    10.770
   5.780        112.50	    11.619
   5.800        129.17	    12.450
   5.820        106.67	    11.314
   5.840        125.83	    12.288
   5.860        117.50	    11.874
   5.880        127.50	    12.369
   5.900        120.00	    12.000
   5.920        121.67	    12.083
   5.940        138.33	    12.884
   5.960        147.50	    13.304
   5.980        139.17	    12.923
   6.000        141.67	    13.038
   6.020        138.33	    12.884
   6.040        149.17	    13.379
   6.060        144.17	    13.153
   6.080        155.83	    13.675
   6.100        145.83	    13.229
   6.120        152.50	    13.528
   6.140        149.17	    13.379
   6.160        188.33	    15.033
   6.180        152.50	    13.528
   6.200        168.33	    14.213
   6.220        176.67	    14.560
   6.240        172.50	    14.387
   6.260        199.17	    15.460
   6.280        181.67	    14.765
   6.300        183.33	    14.832
   6.320        180.83	    14.731
   6.340        186.67	    14.967
   6.360        200.00	    15.492
   6.380        205.83	    15.716
   6.400        205.00	    15.684
   6.420        200.83	    15.524
   6.440        186.67	    14.967
   6.460        190.00	    15.100
   6.480        181.67	    14.765
   6.500        179.17	    14.663
   6.520        170.00	    14.283
   6.540        185.00	    14.900
   6.560        189.17	    15.067
   6.580        155.83	    13.675
   6.600        155.83	    13.675
   6.620        160.00	    13.856
   6.640        135.83	    12.767
   6.660        138.33	    12.884
   6.680        119.17	    11.958
   6.700        125.83	    12.288
   6.720        120.00	    12.000
   6.740        129.17	    12.450
   6.760        149.17	    13.379
   6.780        124.17	    12.207
   6.800        135.83	    12.767
   6.820        102.50	    11.091
   6.840        121.67	    12.083
   6.860        107.50	    11.358
   6.880        110.83	    11.533
   6.900        122.50	    12.124
   6.920        118.33	    11.916
   6.940        110.00	    11.489
   6.960         96.67	    10.770
   6.980        108.33	    11.402
   7.000         97.50	    10.817
   7.020        102.50	    11.091
   7.040         91.67	    10.488
   7.060        105.00	    11.225
   7.080         91.67	    10.488
   7.100         77.50	     9.644
   7.120        109.17	    11.446
   7.140         90.83	    10.440
   7.160         92.50	    10.536
   7.180         89.17	    10.344
   7.200         95.00	    10.677
   7.220         89.17	    10.344
   7.240        102.50	    11.091
   7.260         91.67	    10.488
   7.280         95.83	    10.724
   7.300         92.50	    10.536
   7.320         91.67	    10.488
   7.340         98.33	    10.863
   7.360        111.67	    11.576
   7.380        100.00	    10.954
   7.400        100.00	    10.954
   7.420         87.50	    10.247
   7.440         96.67	    10.770
   7.460         90.83	    10.440
   7.480         96.67	    10.770
   7.500         90.00	    10.392
   7.520        105.83	    11.269
   7.540         98.33	    10.863
   7.560         88.33	    10.296
   7.580         97.50	    10.817
   7.600         93.33	    10.583
   7.620         84.17	    10.050
   7.640        103.33	    11.136
   7.660         84.17	    10.050
   7.680         83.33	    10.000
   7.700         90.00	    10.392
   7.720         89.17	    10.344
   7.740         79.17	     9.747
   7.760         84.17	    10.050
   7.780         95.00	    10.677
   7.800         88.33	    10.296
   7.820         94.17	    10.630
   7.840        100.00	    10.954
   7.860         88.33	    10.296
   7.880         87.50	    10.247
   7.900        101.67	    11.045
   7.920         85.83	    10.149
   7.940        101.67	    11.045
   7.960         96.67	    10.770
   7.980         75.00	     9.487
   8.000         78.33	     9.695
   8.020         84.17	    10.050
   8.040         94.17	    10.630
   8.060         92.50	    10.536
   8.080         75.83	     9.539
   8.100         90.00	    10.392
   8.120         76.67	     9.592
   8.140        103.33	    11.136
   8.160         70.83	     9.220
   8.180         91.67	    10.488
   8.200         88.33	    10.296
   8.220         84.17	    10.050
   8.240         69.17	     9.110
   8.260         84.17	    10.050
   8.280         88.33	    10.296
   8.300         85.00	    10.100
   8.320         76.67	     9.592
   8.340         62.50	     8.660
   8.360         70.00	     9.165
   8.380         60.83	     8.544
   8.400         55.83	     8.185
   8.420         70.83	     9.220
   8.440         57.50	     8.307
   8.460         71.67	     9.274
   8.480         67.50	     9.000
   8.500         78.33	     9.695
   8.520         84.17	    10.050
   8.540         60.83	     8.544
   8.560         75.00	     9.487
   8.580         70.00	     9.165
   8.600         60.83	     8.544
   8.620         66.67	     8.944
   8.640         79.17	     9.747
   8.660         78.33	     9.695
   8.680         80.00	     9.798
   8.700         66.67	     8.944
   8.720         75.00	     9.487
   8.740         79.17	     9.747
   8.760         70.00	     9.165
   8.780         67.50	     9.000
   8.800         84.17	    10.050
   8.820         75.00	     9.487
   8.840         83.33	    10.000
   8.860         73.33	     9.381
   8.880         79.17	     9.747
   8.900         79.17	     9.747
   8.920         80.83	     9.849
   8.940         80.00	     9.798
   8.960         90.00	    10.392
   8.980         92.50	    10.536
   9.000         90.83	    10.440
   9.020         95.00	    10.677
   9.040         87.50	    10.247
   9.060        120.00	    12.000
   9.080        103.33	    11.136
   9.100        121.67	    12.083
   9.120        135.83	    12.767
   9.140        136.67	    12.806
   9.160        122.50	    12.124
   9.180        141.67	    13.038
   9.200        162.50	    13.964
   9.220        200.00	    15.492
   9.240        205.83	    15.716
   9.260        205.83	    15.716
   9.280        217.50	    16.155
   9.300        184.17	    14.866
   9.320        183.33	    14.832
   9.340        153.33	    13.565
   9.360        125.00	    12.247
   9.380        121.67	    12.083
   9.400        122.50	    12.124
   9.420        111.67	    11.576
   9.440         94.17	    10.630
   9.460         89.17	    10.344
   9.480         84.17	    10.050
   9.500         61.67	     8.602
   9.520         85.00	    10.100
   9.540         69.17	     9.110
   9.560         66.67	     8.944
   9.580         67.50	     9.000
   9.600         72.50	     9.327
   9.620         80.83	     9.849
   9.640         75.00	     9.487
   9.660         66.67	     8.944
   9.680         77.50	     9.644
   9.700         74.17	     9.434
   9.720         78.33	     9.695
   9.740         69.17	     9.110
   9.760         70.83	     9.220
   9.780         80.00	     9.798
   9.800         75.00	     9.487
   9.820         72.50	     9.327
   9.840         75.83	     9.539
   9.860         69.17	     9.110
   9.880         74.17	     9.434
   9.900         67.50	     9.000
   9.920         68.33	     9.055
   9.940         69.17	     9.110
   9.960         64.17	     8.775
   9.980         57.50	     8.307
  10.000         44.17	     7.280
  10.020         63.33	     8.718
  10.040         53.33	     8.000
  10.060         60.83	     8.544
  10.080         61.67	     8.602
  10.100         45.00	     7.348
  10.120         62.50	     8.660
  10.140         47.50	     7.550
  10.160         64.17	     8.775
  10.180         57.50	     8.307
  10.200         65.83	     8.888
  10.220         54.17	     8.062
  10.240         64.17	     8.775
  10.260         65.83	     8.888
  10.280         65.83	     8.888
  10.300         50.00	     7.746
  10.320         45.00	     7.348
  10.340         44.17	     7.280
  10.360         73.33	     9.381
  10.380         50.83	     7.810
  10.400         49.17	     7.681
  10.420         45.00	     7.348
  10.440         46.67	     7.483
  10.460         41.67	     7.071
  10.480         50.83	     7.810
  10.500         48.33	     7.616
  10.520         50.83	     7.810
  10.540         55.00	     8.124
  10.560         46.67	     7.483
  10.580         50.00	     7.746
  10.600         43.33	     7.211
  10.620         50.83	     7.810
  10.640         54.17	     8.062
  10.660         44.17	     7.280
  10.680         38.33	     6.782
  10.700         50.00	     7.746
  10.720         40.00	     6.928
  10.740         69.17	     9.110
  10.760         59.17	     8.426
  10.780         65.00	     8.832
  10.800         67.50	     9.000
  10.820         60.83	     8.544
  10.840         78.33	     9.695
  10.860         82.50	     9.950
  10.880         84.17	    10.050
  10.900         76.67	     9.592
  10.920         66.67	     8.944
  10.940         65.00	     8.832
  10.960         65.00	     8.832
  10.980         52.50	     7.937
  11.000         49.17	     7.681
  11.020         46.67	     7.483
  11.040         74.17	     9.434
  11.060         50.83	     7.810
  11.080         45.00	     7.348
  11.100         55.00	     8.124
  11.120         50.83	     7.810
  11.140         64.17	     8.775
  11.160         43.33	     7.211
  11.180         55.83	     8.185
  11.200         45.83	     7.416
  11.220         41.67	     7.071
  11.240         44.17	     7.280
  11.260         50.83	     7.810
  11.280         52.50	     7.937
  11.300         50.00	     7.746
  11.320         41.67	     7.071
  11.340         53.33	     8.000
  11.360         45.00	     7.348
  11.380         54.17	     8.062
  11.400         49.17	     7.681
  11.420         44.17	     7.280
  11.440         46.67	     7.483
  11.460         35.83	     6.557
  11.480         51.67	     7.874
  11.500         45.00	     7.348
  11.520         44.17	     7.280
  11.540         37.50	     6.708
  11.560         45.83	     7.416
  11.580         49.17	     7.681
  11.600         50.83	     7.810
  11.620         49.17	     7.681
  11.640         45.00	     7.348
  11.660         37.50	     6.708
  11.680         41.67	     7.071
  11.700         48.33	     7.616
  11.720         47.50	     7.550
  11.740         46.67	     7.483
  11.760         45.83	     7.416
  11.780         41.67	     7.071
  11.800         47.50	     7.550
  11.820         38.33	     6.782
  11.840         51.67	     7.874
  11.860         45.83	     7.416
  11.880         38.33	     6.782
  11.900         41.67	     7.071
  11.920         52.50	     7.937
  11.940         47.50	     7.550
  11.960         26.67	     5.657
  11.980         52.50	     7.937
  12.000         37.50	     6.708
  12.020         46.67	     7.483
  12.040         46.67	     7.483
  12.060         63.33	     8.718
  12.080         46.67	     7.483
  12.100         43.33	     7.211
  12.120         55.83	     8.185
  12.140         53.33	     8.000
  12.160         37.50	     6.708
  12.180         48.33	     7.616
  12.200         48.33	     7.616
  12.220         55.00	     8.124
  12.240         50.83	     7.810
  12.260         51.67	     7.874
  12.280         40.83	     7.000
  12.300         40.83	     7.000
  12.320         53.33	     8.000
  12.340         70.83	     9.220
  12.360         68.33	     9.055
  12.380         65.83	     8.888
  12.400         82.50	     9.950
  12.420         72.50	     9.327
  12.440        105.83	    11.269
  12.460        116.67	    11.832
  12.480        164.17	    14.036
  12.500        196.67	    15.362
  12.520        237.50	    16.882
  12.540        305.00	    19.131
  12.560        347.50	    20.421
  12.580        320.83	    19.621
  12.600        282.50	    18.412
  12.620        288.33	    18.601
  12.640        297.50	    18.894
  12.660        260.00	    17.664
  12.680        223.33	    16.371
  12.700        220.83	    16.279
  12.720        171.67	    14.353
  12.740        180.00	    14.697
  12.760        166.67	    14.142
  12.780        170.83	    14.318
  12.800        176.67	    14.560
  12.820        205.00	    15.684
  12.840        186.67	    14.967
  12.860        193.33	    15.232
  12.880        200.83	    15.524
  12.900        185.83	    14.933
  12.920        178.33	    14.629
  12.940        174.17	    14.457
  12.960        144.17	    13.153
  12.980        110.83	    11.533
  13.000         76.67	     9.592
  13.020         63.33	     8.718
  13.040         77.50	     9.644
  13.060         65.00	     8.832
  13.080         66.67	     8.944
  13.100         52.50	     7.937
  13.120         47.50	     7.550
  13.140         50.00	     7.746
  13.160         45.83	     7.416
  13.180         44.17	     7.280
  13.200         46.67	     7.483
  13.220         41.67	     7.071
  13.240         31.67	     6.164
  13.260         41.67	     7.071
  13.280         59.17	     8.426
  13.300         28.33	     5.831
  13.320         40.00	     6.928
  13.340         33.33	     6.325
  13.360         46.67	     7.483
  13.380         36.67	     6.633
  13.400         38.33	     6.782
  13.420         45.00	     7.348
  13.440         35.00	     6.481
  13.460         43.33	     7.211
  13.480         36.67	     6.633
  13.500         45.83	     7.416
  13.520         45.00	     7.348
  13.540         42.50	     7.141
  13.560         32.50	     6.245
  13.580         27.50	     5.745
  13.600         43.33	     7.211
  13.620         34.17	     6.403
  13.640         40.00	     6.928
  13.660         30.83	     6.083
  13.680         37.50	     6.708
  13.700         40.00	     6.928
  13.720         50.00	     7.746
  13.740         43.33	     7.211
  13.760         45.83	     7.416
  13.780         44.17	     7.280
  13.800         36.67	     6.633
  13.820         45.83	     7.416
  13.840         33.33	     6.325
  13.860         32.50	     6.245
  13.880         44.17	     7.280
  13.900         48.33	     7.616
  13.920         49.17	     7.681
  13.940         44.17	     7.280
  13.960         43.33	     7.211
  13.980         41.67	     7.071
  14.000         43.33	     7.211
  14.020         47.50	     7.550
  14.040         37.50	     6.708
  14.060         35.00	     6.481
  14.080         40.00	     6.928
  14.100         32.50	     6.245
  14.120         32.50	     6.245
  14.140         38.33	     6.782
  14.160         33.33	     6.325
  14.180         31.67	     6.164
  14.200         49.17	     7.681
  14.220         63.33	     8.718
  14.240         45.00	     7.348
  14.260         58.33	     8.367
  14.280         41.67	     7.071
  14.300         38.33	     6.782
  14.320         39.17	     6.856
  14.340         46.67	     7.483
  14.360         35.00	     6.481
  14.380         46.67	     7.483
  14.400         37.50	     6.708
