
Filename:
	C:\Program Files\Thermo Electron\WinXRD\Datafiles\F_HERMAN\GEO\GG_12_SFT.raw

File Created:
	October 12, 2020 - 11:41 PM

Specimen Id:
	GG_12_SFT

Specimen Name:
	

Specimen Description:
	

Comment:
Scan Type: 2Theta Scan
Start Angle: 3 deg.
Stop Angle: 65 deg.
Num Points: 3101
Step Size: 0.02 deg.
Scan Rate: 1.000000
Scan Mode: Continuous
Wavelength: 1.540562
\Kalpha1: 1.540562	\Kalpha2: 1.544390	\Kbeta: 1.392218

Optics:
		Detector:
			 Type: Fixed Slits
		Tube: 
			 Type: Fixed Slits


Datas:
 Pos [deg]       Rate [CPS]      ESD [-]

Range 1 ---> Iteration 1
   3.000        326.67	    19.799
   3.020        345.83	    20.372
   3.040        320.00	    19.596
   3.060        328.33	    19.849
   3.080        307.50	    19.209
   3.100        340.83	    20.224
   3.120        322.50	    19.672
   3.140        305.83	    19.157
   3.160        301.67	    19.026
   3.180        319.17	    19.570
   3.200        291.67	    18.708
   3.220        304.17	    19.105
   3.240        296.67	    18.868
   3.260        279.17	    18.303
   3.280        286.67	    18.547
   3.300        291.67	    18.708
   3.320        260.00	    17.664
   3.340        277.50	    18.248
   3.360        284.17	    18.466
   3.380        277.50	    18.248
   3.400        297.50	    18.894
   3.420        273.33	    18.111
   3.440        284.17	    18.466
   3.460        285.83	    18.520
   3.480        270.00	    18.000
   3.500        261.67	    17.720
   3.520        255.83	    17.521
   3.540        285.00	    18.493
   3.560        260.83	    17.692
   3.580        266.67	    17.889
   3.600        284.17	    18.466
   3.620        265.83	    17.861
   3.640        239.17	    16.941
   3.660        247.50	    17.234
   3.680        247.50	    17.234
   3.700        265.00	    17.833
   3.720        233.33	    16.733
   3.740        245.00	    17.146
   3.760        221.67	    16.310
   3.780        243.33	    17.088
   3.800        223.33	    16.371
   3.820        218.33	    16.186
   3.840        234.17	    16.763
   3.860        241.67	    17.029
   3.880        265.83	    17.861
   3.900        240.00	    16.971
   3.920        238.33	    16.912
   3.940        225.00	    16.432
   3.960        246.67	    17.205
   3.980        254.17	    17.464
   4.000        225.83	    16.462
   4.020        230.83	    16.643
   4.040        236.67	    16.852
   4.060        252.50	    17.407
   4.080        195.00	    15.297
   4.100        220.83	    16.279
   4.120        220.00	    16.248
   4.140        233.33	    16.733
   4.160        225.83	    16.462
   4.180        208.33	    15.811
   4.200        208.33	    15.811
   4.220        213.33	    16.000
   4.240        225.83	    16.462
   4.260        219.17	    16.217
   4.280        192.50	    15.199
   4.300        221.67	    16.310
   4.320        215.00	    16.062
   4.340        205.00	    15.684
   4.360        206.67	    15.748
   4.380        194.17	    15.264
   4.400        201.67	    15.556
   4.420        180.83	    14.731
   4.440        197.50	    15.395
   4.460        184.17	    14.866
   4.480        181.67	    14.765
   4.500        211.67	    15.937
   4.520        210.83	    15.906
   4.540        187.50	    15.000
   4.560        210.83	    15.906
   4.580        189.17	    15.067
   4.600        181.67	    14.765
   4.620        168.33	    14.213
   4.640        205.00	    15.684
   4.660        192.50	    15.199
   4.680        198.33	    15.427
   4.700        173.33	    14.422
   4.720        171.67	    14.353
   4.740        183.33	    14.832
   4.760        189.17	    15.067
   4.780        171.67	    14.353
   4.800        189.17	    15.067
   4.820        163.33	    14.000
   4.840        165.00	    14.071
   4.860        183.33	    14.832
   4.880        188.33	    15.033
   4.900        183.33	    14.832
   4.920        180.00	    14.697
   4.940        164.17	    14.036
   4.960        175.00	    14.491
   4.980        180.83	    14.731
   5.000        179.17	    14.663
   5.020        171.67	    14.353
   5.040        170.00	    14.283
   5.060        172.50	    14.387
   5.080        181.67	    14.765
   5.100        178.33	    14.629
   5.120        160.83	    13.892
   5.140        147.50	    13.304
   5.160        145.00	    13.191
   5.180        148.33	    13.342
   5.200        189.17	    15.067
   5.220        146.67	    13.266
   5.240        182.50	    14.799
   5.260        164.17	    14.036
   5.280        158.33	    13.784
   5.300        140.00	    12.961
   5.320        171.67	    14.353
   5.340        178.33	    14.629
   5.360        159.17	    13.820
   5.380        154.17	    13.601
   5.400        166.67	    14.142
   5.420        160.83	    13.892
   5.440        170.00	    14.283
   5.460        161.67	    13.928
   5.480        161.67	    13.928
   5.500        140.00	    12.961
   5.520        140.00	    12.961
   5.540        164.17	    14.036
   5.560        162.50	    13.964
   5.580        152.50	    13.528
   5.600        137.50	    12.845
   5.620        155.83	    13.675
   5.640        153.33	    13.565
   5.660        145.00	    13.191
   5.680        146.67	    13.266
   5.700        144.17	    13.153
   5.720        139.17	    12.923
   5.740        169.17	    14.248
   5.760        155.83	    13.675
   5.780        150.83	    13.454
   5.800        142.50	    13.077
   5.820        155.83	    13.675
   5.840        136.67	    12.806
   5.860        152.50	    13.528
   5.880        135.83	    12.767
   5.900        127.50	    12.369
   5.920        176.67	    14.560
   5.940        156.67	    13.711
   5.960        154.17	    13.601
   5.980        192.50	    15.199
   6.000        146.67	    13.266
   6.020        155.83	    13.675
   6.040        160.83	    13.892
   6.060        150.83	    13.454
   6.080        172.50	    14.387
   6.100        182.50	    14.799
   6.120        171.67	    14.353
   6.140        149.17	    13.379
   6.160        150.83	    13.454
   6.180        178.33	    14.629
   6.200        188.33	    15.033
   6.220        186.67	    14.967
   6.240        191.67	    15.166
   6.260        187.50	    15.000
   6.280        150.00	    13.416
   6.300        165.83	    14.107
   6.320        159.17	    13.820
   6.340        147.50	    13.304
   6.360        160.00	    13.856
   6.380        176.67	    14.560
   6.400        156.67	    13.711
   6.420        160.83	    13.892
   6.440        184.17	    14.866
   6.460        175.00	    14.491
   6.480        175.00	    14.491
   6.500        151.67	    13.491
   6.520        131.67	    12.570
   6.540        143.33	    13.115
   6.560        145.83	    13.229
   6.580        137.50	    12.845
   6.600        140.00	    12.961
   6.620        118.33	    11.916
   6.640        139.17	    12.923
   6.660        120.83	    12.042
   6.680        140.00	    12.961
   6.700        120.00	    12.000
   6.720        129.17	    12.450
   6.740        112.50	    11.619
   6.760        117.50	    11.874
   6.780        122.50	    12.124
   6.800        109.17	    11.446
   6.820        109.17	    11.446
   6.840        115.00	    11.747
   6.860        130.00	    12.490
   6.880        114.17	    11.705
   6.900        117.50	    11.874
   6.920        111.67	    11.576
   6.940        131.67	    12.570
   6.960        138.33	    12.884
   6.980        125.00	    12.247
   7.000        120.00	    12.000
   7.020        129.17	    12.450
   7.040        118.33	    11.916
   7.060        110.83	    11.533
   7.080        104.17	    11.180
   7.100        115.00	    11.747
   7.120        120.00	    12.000
   7.140        102.50	    11.091
   7.160        107.50	    11.358
   7.180        121.67	    12.083
   7.200        103.33	    11.136
   7.220        117.50	    11.874
   7.240        122.50	    12.124
   7.260        100.83	    11.000
   7.280        118.33	    11.916
   7.300        104.17	    11.180
   7.320        115.83	    11.790
   7.340        110.83	    11.533
   7.360        115.83	    11.790
   7.380        138.33	    12.884
   7.400        109.17	    11.446
   7.420         92.50	    10.536
   7.440        100.00	    10.954
   7.460        113.33	    11.662
   7.480         97.50	    10.817
   7.500         90.83	    10.440
   7.520        109.17	    11.446
   7.540        114.17	    11.705
   7.560        124.17	    12.207
   7.580         99.17	    10.909
   7.600        106.67	    11.314
   7.620         94.17	    10.630
   7.640        121.67	    12.083
   7.660        112.50	    11.619
   7.680         96.67	    10.770
   7.700        102.50	    11.091
   7.720        110.83	    11.533
   7.740        108.33	    11.402
   7.760         99.17	    10.909
   7.780        114.17	    11.705
   7.800        107.50	    11.358
   7.820         98.33	    10.863
   7.840        101.67	    11.045
   7.860        105.00	    11.225
   7.880        100.00	    10.954
   7.900        100.00	    10.954
   7.920        104.17	    11.180
   7.940         90.83	    10.440
   7.960        123.33	    12.166
   7.980        110.83	    11.533
   8.000         85.00	    10.100
   8.020         93.33	    10.583
   8.040         98.33	    10.863
   8.060         85.00	    10.100
   8.080         94.17	    10.630
   8.100         95.83	    10.724
   8.120         98.33	    10.863
   8.140         96.67	    10.770
   8.160        102.50	    11.091
   8.180         96.67	    10.770
   8.200         92.50	    10.536
   8.220         95.83	    10.724
   8.240         90.83	    10.440
   8.260         90.83	    10.440
   8.280         94.17	    10.630
   8.300        103.33	    11.136
   8.320        100.83	    11.000
   8.340         99.17	    10.909
   8.360         92.50	    10.536
   8.380         85.83	    10.149
   8.400         87.50	    10.247
   8.420        105.83	    11.269
   8.440        108.33	    11.402
   8.460         95.00	    10.677
   8.480         90.00	    10.392
   8.500        117.50	    11.874
   8.520        102.50	    11.091
   8.540         92.50	    10.536
   8.560        108.33	    11.402
   8.580         72.50	     9.327
   8.600        106.67	    11.314
   8.620         85.00	    10.100
   8.640        100.83	    11.000
   8.660        100.83	    11.000
   8.680        111.67	    11.576
   8.700         86.67	    10.198
   8.720         97.50	    10.817
   8.740         89.17	    10.344
   8.760        118.33	    11.916
   8.780        100.83	    11.000
   8.800        103.33	    11.136
   8.820        105.00	    11.225
   8.840        120.00	    12.000
   8.860        128.33	    12.410
   8.880        144.17	    13.153
   8.900        135.83	    12.767
   8.920        127.50	    12.369
   8.940        154.17	    13.601
   8.960        146.67	    13.266
   8.980        187.50	    15.000
   9.000        210.00	    15.875
   9.020        184.17	    14.866
   9.040        190.83	    15.133
   9.060        193.33	    15.232
   9.080        213.33	    16.000
   9.100        215.00	    16.062
   9.120        202.50	    15.588
   9.140        190.00	    15.100
   9.160        151.67	    13.491
   9.180        110.00	    11.489
   9.200        110.00	    11.489
   9.220         96.67	    10.770
   9.240         92.50	    10.536
   9.260        104.17	    11.180
   9.280         94.17	    10.630
   9.300         80.83	     9.849
   9.320         74.17	     9.434
   9.340         88.33	    10.296
   9.360        103.33	    11.136
   9.380         87.50	    10.247
   9.400         96.67	    10.770
   9.420         87.50	    10.247
   9.440        100.83	    11.000
   9.460         84.17	    10.050
   9.480         79.17	     9.747
   9.500         97.50	    10.817
   9.520         85.83	    10.149
   9.540         85.00	    10.100
   9.560         85.83	    10.149
   9.580         96.67	    10.770
   9.600         80.83	     9.849
   9.620         77.50	     9.644
   9.640         88.33	    10.296
   9.660         85.83	    10.149
   9.680         86.67	    10.198
   9.700         73.33	     9.381
   9.720         82.50	     9.950
   9.740         86.67	    10.198
   9.760         88.33	    10.296
   9.780         78.33	     9.695
   9.800         81.67	     9.899
   9.820         80.00	     9.798
   9.840         91.67	    10.488
   9.860         53.33	     8.000
   9.880         78.33	     9.695
   9.900         77.50	     9.644
   9.920         80.00	     9.798
   9.940         82.50	     9.950
   9.960         65.00	     8.832
   9.980         75.00	     9.487
  10.000         75.83	     9.539
  10.020         91.67	    10.488
  10.040         74.17	     9.434
  10.060         75.83	     9.539
  10.080         74.17	     9.434
  10.100         80.00	     9.798
  10.120         62.50	     8.660
  10.140         67.50	     9.000
  10.160         57.50	     8.307
  10.180         69.17	     9.110
  10.200         81.67	     9.899
  10.220         83.33	    10.000
  10.240         68.33	     9.055
  10.260         63.33	     8.718
  10.280         69.17	     9.110
  10.300         85.00	    10.100
  10.320         70.00	     9.165
  10.340         75.83	     9.539
  10.360         74.17	     9.434
  10.380         69.17	     9.110
  10.400         52.50	     7.937
  10.420         62.50	     8.660
  10.440         79.17	     9.747
  10.460         71.67	     9.274
  10.480         59.17	     8.426
  10.500         83.33	    10.000
  10.520         63.33	     8.718
  10.540         66.67	     8.944
  10.560         79.17	     9.747
  10.580         82.50	     9.950
  10.600         77.50	     9.644
  10.620         75.83	     9.539
  10.640         84.17	    10.050
  10.660        115.83	    11.790
  10.680        185.00	    14.900
  10.700        199.17	    15.460
  10.720        150.83	    13.454
  10.740        145.00	    13.191
  10.760        107.50	    11.358
  10.780         90.00	    10.392
  10.800         73.33	     9.381
  10.820         71.67	     9.274
  10.840         80.00	     9.798
  10.860         70.00	     9.165
  10.880         60.00	     8.485
  10.900         70.00	     9.165
  10.920         73.33	     9.381
  10.940         65.00	     8.832
  10.960         70.83	     9.220
  10.980         56.67	     8.246
  11.000         69.17	     9.110
  11.020         50.00	     7.746
  11.040         63.33	     8.718
  11.060         61.67	     8.602
  11.080         64.17	     8.775
  11.100         55.83	     8.185
  11.120         67.50	     9.000
  11.140         59.17	     8.426
  11.160         53.33	     8.000
  11.180         54.17	     8.062
  11.200         67.50	     9.000
  11.220         60.83	     8.544
  11.240         55.83	     8.185
  11.260         74.17	     9.434
  11.280         72.50	     9.327
  11.300         58.33	     8.367
  11.320         65.83	     8.888
  11.340         53.33	     8.000
  11.360         60.83	     8.544
  11.380         65.83	     8.888
  11.400         57.50	     8.307
  11.420         67.50	     9.000
  11.440         52.50	     7.937
  11.460         69.17	     9.110
  11.480         52.50	     7.937
  11.500         55.83	     8.185
  11.520         56.67	     8.246
  11.540         43.33	     7.211
  11.560         53.33	     8.000
  11.580         62.50	     8.660
  11.600         57.50	     8.307
  11.620         55.00	     8.124
  11.640         57.50	     8.307
  11.660         50.00	     7.746
  11.680         62.50	     8.660
  11.700         67.50	     9.000
  11.720         51.67	     7.874
  11.740         53.33	     8.000
  11.760         63.33	     8.718
  11.780         60.83	     8.544
  11.800         61.67	     8.602
  11.820         55.00	     8.124
  11.840         44.17	     7.280
  11.860         65.00	     8.832
  11.880         65.00	     8.832
  11.900         55.00	     8.124
  11.920         54.17	     8.062
  11.940         53.33	     8.000
  11.960         65.83	     8.888
  11.980         58.33	     8.367
  12.000         60.00	     8.485
  12.020         65.00	     8.832
  12.040         63.33	     8.718
  12.060         56.67	     8.246
  12.080         60.83	     8.544
  12.100         69.17	     9.110
  12.120         63.33	     8.718
  12.140         61.67	     8.602
  12.160         55.83	     8.185
  12.180         65.00	     8.832
  12.200         71.67	     9.274
  12.220         73.33	     9.381
  12.240         89.17	    10.344
  12.260         74.17	     9.434
  12.280        120.00	    12.000
  12.300        117.50	    11.874
  12.320        126.67	    12.329
  12.340        133.33	    12.649
  12.360        118.33	    11.916
  12.380        148.33	    13.342
  12.400        158.33	    13.784
  12.420        177.50	    14.595
  12.440        177.50	    14.595
  12.460        157.50	    13.748
  12.480        119.17	    11.958
  12.500        132.50	    12.610
  12.520        112.50	    11.619
  12.540        102.50	    11.091
  12.560        105.00	    11.225
  12.580        126.67	    12.329
  12.600        147.50	    13.304
  12.620        160.00	    13.856
  12.640        189.17	    15.067
  12.660        177.50	    14.595
  12.680        234.17	    16.763
  12.700        205.83	    15.716
  12.720        191.67	    15.166
  12.740        181.67	    14.765
  12.760        156.67	    13.711
  12.780        110.83	    11.533
  12.800         92.50	    10.536
  12.820         72.50	     9.327
  12.840         80.00	     9.798
  12.860         73.33	     9.381
  12.880         66.67	     8.944
  12.900         70.83	     9.220
  12.920         54.17	     8.062
  12.940         56.67	     8.246
  12.960         70.00	     9.165
  12.980         40.00	     6.928
  13.000         56.67	     8.246
  13.020         36.67	     6.633
  13.040         61.67	     8.602
  13.060         61.67	     8.602
  13.080         57.50	     8.307
  13.100         48.33	     7.616
  13.120         64.17	     8.775
  13.140         39.17	     6.856
  13.160         55.83	     8.185
  13.180         47.50	     7.550
  13.200         37.50	     6.708
  13.220         41.67	     7.071
  13.240         54.17	     8.062
  13.260         50.00	     7.746
  13.280         51.67	     7.874
  13.300         53.33	     8.000
  13.320         51.67	     7.874
  13.340         53.33	     8.000
  13.360         55.83	     8.185
  13.380         60.00	     8.485
  13.400         46.67	     7.483
  13.420         50.00	     7.746
  13.440         49.17	     7.681
  13.460         49.17	     7.681
  13.480         53.33	     8.000
  13.500         50.83	     7.810
  13.520         48.33	     7.616
  13.540         49.17	     7.681
  13.560         46.67	     7.483
  13.580         52.50	     7.937
  13.600         48.33	     7.616
  13.620         35.83	     6.557
  13.640         41.67	     7.071
  13.660         45.83	     7.416
  13.680         40.83	     7.000
  13.700         48.33	     7.616
  13.720         57.50	     8.307
  13.740         54.17	     8.062
  13.760         58.33	     8.367
  13.780         48.33	     7.616
  13.800         48.33	     7.616
  13.820         47.50	     7.550
  13.840         50.00	     7.746
  13.860         45.83	     7.416
  13.880         60.00	     8.485
  13.900         54.17	     8.062
  13.920         45.83	     7.416
  13.940         50.83	     7.810
  13.960         58.33	     8.367
  13.980         56.67	     8.246
  14.000         49.17	     7.681
  14.020         64.17	     8.775
  14.040         55.83	     8.185
  14.060         60.00	     8.485
  14.080         76.67	     9.592
  14.100         87.50	    10.247
  14.120         60.83	     8.544
  14.140         63.33	     8.718
  14.160         63.33	     8.718
  14.180         50.00	     7.746
  14.200         75.83	     9.539
  14.220         69.17	     9.110
  14.240         61.67	     8.602
  14.260         57.50	     8.307
  14.280         42.50	     7.141
  14.300         48.33	     7.616
  14.320         36.67	     6.633
  14.340         36.67	     6.633
  14.360         52.50	     7.937
  14.380         44.17	     7.280
  14.400         48.33	     7.616
