
Filename:
	C:\Program Files\Thermo Electron\WinXRD\Datafiles\F_HERMAN\GEO\GG_16_SFT.raw

File Created:
	October 13, 2020 - 04:30 PM

Specimen Id:
	GG_16_SFT

Specimen Name:
	

Specimen Description:
	

Comment:
Scan Type: 2Theta Scan
Start Angle: 3 deg.
Stop Angle: 65 deg.
Num Points: 3101
Step Size: 0.02 deg.
Scan Rate: 1.000000
Scan Mode: Continuous
Wavelength: 1.540562
\Kalpha1: 1.540562	\Kalpha2: 1.544390	\Kbeta: 1.392218

Optics:
		Detector:
			 Type: Fixed Slits
		Tube: 
			 Type: Fixed Slits


Datas:
 Pos [deg]       Rate [CPS]      ESD [-]

Range 1 ---> Iteration 1
   3.000        270.00	    18.000
   3.020        290.83	    18.682
   3.040        275.00	    18.166
   3.060        274.17	    18.138
   3.080        261.67	    17.720
   3.100        289.17	    18.628
   3.120        272.50	    18.083
   3.140        281.67	    18.385
   3.160        272.50	    18.083
   3.180        269.17	    17.972
   3.200        273.33	    18.111
   3.220        269.17	    17.972
   3.240        249.17	    17.292
   3.260        270.83	    18.028
   3.280        259.17	    17.635
   3.300        252.50	    17.407
   3.320        234.17	    16.763
   3.340        244.17	    17.117
   3.360        246.67	    17.205
   3.380        226.67	    16.492
   3.400        236.67	    16.852
   3.420        249.17	    17.292
   3.440        278.33	    18.276
   3.460        228.33	    16.553
   3.480        218.33	    16.186
   3.500        243.33	    17.088
   3.520        222.50	    16.340
   3.540        253.33	    17.436
   3.560        211.67	    15.937
   3.580        234.17	    16.763
   3.600        222.50	    16.340
   3.620        242.50	    17.059
   3.640        230.83	    16.643
   3.660        233.33	    16.733
   3.680        230.00	    16.613
   3.700        216.67	    16.125
   3.720        214.17	    16.031
   3.740        204.17	    15.652
   3.760        200.83	    15.524
   3.780        210.00	    15.875
   3.800        228.33	    16.553
   3.820        204.17	    15.652
   3.840        203.33	    15.620
   3.860        190.00	    15.100
   3.880        210.00	    15.875
   3.900        209.17	    15.843
   3.920        210.00	    15.875
   3.940        225.00	    16.432
   3.960        210.00	    15.875
   3.980        201.67	    15.556
   4.000        195.00	    15.297
   4.020        198.33	    15.427
   4.040        199.17	    15.460
   4.060        210.00	    15.875
   4.080        180.83	    14.731
   4.100        211.67	    15.937
   4.120        197.50	    15.395
   4.140        173.33	    14.422
   4.160        200.00	    15.492
   4.180        204.17	    15.652
   4.200        195.00	    15.297
   4.220        203.33	    15.620
   4.240        172.50	    14.387
   4.260        185.00	    14.900
   4.280        193.33	    15.232
   4.300        175.00	    14.491
   4.320        173.33	    14.422
   4.340        191.67	    15.166
   4.360        175.00	    14.491
   4.380        166.67	    14.142
   4.400        190.83	    15.133
   4.420        187.50	    15.000
   4.440        185.00	    14.900
   4.460        175.83	    14.526
   4.480        185.83	    14.933
   4.500        177.50	    14.595
   4.520        165.00	    14.071
   4.540        169.17	    14.248
   4.560        190.00	    15.100
   4.580        160.83	    13.892
   4.600        202.50	    15.588
   4.620        160.00	    13.856
   4.640        156.67	    13.711
   4.660        179.17	    14.663
   4.680        155.00	    13.638
   4.700        167.50	    14.177
   4.720        172.50	    14.387
   4.740        160.00	    13.856
   4.760        157.50	    13.748
   4.780        159.17	    13.820
   4.800        160.83	    13.892
   4.820        146.67	    13.266
   4.840        145.83	    13.229
   4.860        142.50	    13.077
   4.880        153.33	    13.565
   4.900        178.33	    14.629
   4.920        144.17	    13.153
   4.940        149.17	    13.379
   4.960        163.33	    14.000
   4.980        150.00	    13.416
   5.000        149.17	    13.379
   5.020        135.00	    12.728
   5.040        152.50	    13.528
   5.060        160.83	    13.892
   5.080        155.83	    13.675
   5.100        165.83	    14.107
   5.120        154.17	    13.601
   5.140        154.17	    13.601
   5.160        150.00	    13.416
   5.180        156.67	    13.711
   5.200        150.83	    13.454
   5.220        146.67	    13.266
   5.240        139.17	    12.923
   5.260        140.83	    13.000
   5.280        148.33	    13.342
   5.300        145.00	    13.191
   5.320        135.00	    12.728
   5.340        158.33	    13.784
   5.360        141.67	    13.038
   5.380        154.17	    13.601
   5.400        166.67	    14.142
   5.420        131.67	    12.570
   5.440        160.83	    13.892
   5.460        145.83	    13.229
   5.480        141.67	    13.038
   5.500        145.83	    13.229
   5.520        145.00	    13.191
   5.540        134.17	    12.689
   5.560        135.83	    12.767
   5.580        128.33	    12.410
   5.600        135.83	    12.767
   5.620        115.00	    11.747
   5.640        125.83	    12.288
   5.660        134.17	    12.689
   5.680        130.00	    12.490
   5.700        137.50	    12.845
   5.720        147.50	    13.304
   5.740        130.00	    12.490
   5.760        116.67	    11.832
   5.780        125.83	    12.288
   5.800        142.50	    13.077
   5.820        131.67	    12.570
   5.840        119.17	    11.958
   5.860        125.00	    12.247
   5.880        140.00	    12.961
   5.900        123.33	    12.166
   5.920        150.83	    13.454
   5.940        130.83	    12.530
   5.960        125.83	    12.288
   5.980        160.00	    13.856
   6.000        138.33	    12.884
   6.020        153.33	    13.565
   6.040        141.67	    13.038
   6.060        140.00	    12.961
   6.080        162.50	    13.964
   6.100        135.83	    12.767
   6.120        153.33	    13.565
   6.140        169.17	    14.248
   6.160        137.50	    12.845
   6.180        138.33	    12.884
   6.200        165.00	    14.071
   6.220        138.33	    12.884
   6.240        148.33	    13.342
   6.260        135.00	    12.728
   6.280        146.67	    13.266
   6.300        124.17	    12.207
   6.320        124.17	    12.207
   6.340        142.50	    13.077
   6.360        130.00	    12.490
   6.380        124.17	    12.207
   6.400        137.50	    12.845
   6.420        118.33	    11.916
   6.440        116.67	    11.832
   6.460        109.17	    11.446
   6.480        131.67	    12.570
   6.500        135.83	    12.767
   6.520        128.33	    12.410
   6.540        121.67	    12.083
   6.560        114.17	    11.705
   6.580        118.33	    11.916
   6.600        113.33	    11.662
   6.620        120.83	    12.042
   6.640        114.17	    11.705
   6.660        108.33	    11.402
   6.680        108.33	    11.402
   6.700        130.00	    12.490
   6.720        105.83	    11.269
   6.740        126.67	    12.329
   6.760        112.50	    11.619
   6.780        130.00	    12.490
   6.800        110.00	    11.489
   6.820        105.00	    11.225
   6.840        100.83	    11.000
   6.860        117.50	    11.874
   6.880        116.67	    11.832
   6.900        110.00	    11.489
   6.920        110.00	    11.489
   6.940         98.33	    10.863
   6.960        101.67	    11.045
   6.980        104.17	    11.180
   7.000         99.17	    10.909
   7.020        101.67	    11.045
   7.040         78.33	     9.695
   7.060        110.00	    11.489
   7.080         90.83	    10.440
   7.100        105.00	    11.225
   7.120        105.00	    11.225
   7.140         97.50	    10.817
   7.160         98.33	    10.863
   7.180        105.83	    11.269
   7.200         95.00	    10.677
   7.220        105.00	    11.225
   7.240        100.83	    11.000
   7.260        116.67	    11.832
   7.280        100.00	    10.954
   7.300         91.67	    10.488
   7.320         97.50	    10.817
   7.340        115.00	    11.747
   7.360         90.83	    10.440
   7.380         99.17	    10.909
   7.400         90.00	    10.392
   7.420         92.50	    10.536
   7.440         75.83	     9.539
   7.460         99.17	    10.909
   7.480         91.67	    10.488
   7.500         86.67	    10.198
   7.520         92.50	    10.536
   7.540         80.83	     9.849
   7.560         92.50	    10.536
   7.580         80.83	     9.849
   7.600         90.83	    10.440
   7.620         99.17	    10.909
   7.640        104.17	    11.180
   7.660        109.17	    11.446
   7.680         95.00	    10.677
   7.700         90.00	    10.392
   7.720        102.50	    11.091
   7.740         88.33	    10.296
   7.760         97.50	    10.817
   7.780         95.00	    10.677
   7.800        101.67	    11.045
   7.820         96.67	    10.770
   7.840         90.83	    10.440
   7.860        101.67	    11.045
   7.880        101.67	    11.045
   7.900        103.33	    11.136
   7.920         82.50	     9.950
   7.940        105.83	    11.269
   7.960         85.00	    10.100
   7.980         79.17	     9.747
   8.000         95.00	    10.677
   8.020         98.33	    10.863
   8.040         94.17	    10.630
   8.060         97.50	    10.817
   8.080         88.33	    10.296
   8.100         90.83	    10.440
   8.120         98.33	    10.863
   8.140        101.67	    11.045
   8.160         93.33	    10.583
   8.180         81.67	     9.899
   8.200         85.00	    10.100
   8.220         84.17	    10.050
   8.240         94.17	    10.630
   8.260         97.50	    10.817
   8.280         87.50	    10.247
   8.300         83.33	    10.000
   8.320         90.83	    10.440
   8.340         95.83	    10.724
   8.360         78.33	     9.695
   8.380         82.50	     9.950
   8.400        107.50	    11.358
   8.420        103.33	    11.136
   8.440         92.50	    10.536
   8.460         90.83	    10.440
   8.480         87.50	    10.247
   8.500         97.50	    10.817
   8.520         91.67	    10.488
   8.540         99.17	    10.909
   8.560         83.33	    10.000
   8.580         80.83	     9.849
   8.600         96.67	    10.770
   8.620         90.83	    10.440
   8.640         87.50	    10.247
   8.660         74.17	     9.434
   8.680         77.50	     9.644
   8.700         90.83	    10.440
   8.720         77.50	     9.644
   8.740         80.00	     9.798
   8.760         80.83	     9.849
   8.780        102.50	    11.091
   8.800        111.67	    11.576
   8.820        105.83	    11.269
   8.840        122.50	    12.124
   8.860        115.83	    11.790
   8.880        127.50	    12.369
   8.900        130.83	    12.530
   8.920        135.83	    12.767
   8.940        141.67	    13.038
   8.960        132.50	    12.610
   8.980        133.33	    12.649
   9.000        127.50	    12.369
   9.020        124.17	    12.207
   9.040         99.17	    10.909
   9.060         83.33	    10.000
   9.080         95.83	    10.724
   9.100         86.67	    10.198
   9.120         66.67	     8.944
   9.140         74.17	     9.434
   9.160         90.83	    10.440
   9.180         93.33	    10.583
   9.200         86.67	    10.198
   9.220         93.33	    10.583
   9.240         69.17	     9.110
   9.260         83.33	    10.000
   9.280         85.00	    10.100
   9.300         72.50	     9.327
   9.320         89.17	    10.344
   9.340         80.00	     9.798
   9.360         75.00	     9.487
   9.380         78.33	     9.695
   9.400         58.33	     8.367
   9.420         81.67	     9.899
   9.440         79.17	     9.747
   9.460         74.17	     9.434
   9.480         70.83	     9.220
   9.500         81.67	     9.899
   9.520         80.00	     9.798
   9.540         84.17	    10.050
   9.560         75.83	     9.539
   9.580         85.00	    10.100
   9.600        100.00	    10.954
   9.620         72.50	     9.327
   9.640         76.67	     9.592
   9.660         78.33	     9.695
   9.680         70.83	     9.220
   9.700         59.17	     8.426
   9.720         67.50	     9.000
   9.740         70.83	     9.220
   9.760         60.00	     8.485
   9.780         80.00	     9.798
   9.800         83.33	    10.000
   9.820         75.83	     9.539
   9.840         67.50	     9.000
   9.860         87.50	    10.247
   9.880         88.33	    10.296
   9.900        101.67	    11.045
   9.920         80.83	     9.849
   9.940         80.83	     9.849
   9.960         77.50	     9.644
   9.980         67.50	     9.000
  10.000         76.67	     9.592
  10.020         75.83	     9.539
  10.040         74.17	     9.434
  10.060         72.50	     9.327
  10.080         57.50	     8.307
  10.100         75.83	     9.539
  10.120         68.33	     9.055
  10.140         72.50	     9.327
  10.160         80.00	     9.798
  10.180         73.33	     9.381
  10.200         73.33	     9.381
  10.220         54.17	     8.062
  10.240         70.83	     9.220
  10.260         58.33	     8.367
  10.280         60.83	     8.544
  10.300         58.33	     8.367
  10.320         75.00	     9.487
  10.340         66.67	     8.944
  10.360         65.83	     8.888
  10.380         68.33	     9.055
  10.400         40.83	     7.000
  10.420         75.00	     9.487
  10.440         65.00	     8.832
  10.460         70.83	     9.220
  10.480         65.00	     8.832
  10.500         66.67	     8.944
  10.520         80.00	     9.798
  10.540        105.83	    11.269
  10.560        135.00	    12.728
  10.580        111.67	    11.576
  10.600         97.50	    10.817
  10.620         96.67	    10.770
  10.640         90.83	    10.440
  10.660         76.67	     9.592
  10.680         75.83	     9.539
  10.700         79.17	     9.747
  10.720         66.67	     8.944
  10.740         65.83	     8.888
  10.760         48.33	     7.616
  10.780         65.83	     8.888
  10.800         60.00	     8.485
  10.820         61.67	     8.602
  10.840         63.33	     8.718
  10.860         69.17	     9.110
  10.880         57.50	     8.307
  10.900         64.17	     8.775
  10.920         61.67	     8.602
  10.940         74.17	     9.434
  10.960         60.00	     8.485
  10.980         69.17	     9.110
  11.000         68.33	     9.055
  11.020         67.50	     9.000
  11.040         64.17	     8.775
  11.060         60.00	     8.485
  11.080         74.17	     9.434
  11.100         67.50	     9.000
  11.120         74.17	     9.434
  11.140         55.00	     8.124
  11.160         63.33	     8.718
  11.180         62.50	     8.660
  11.200         68.33	     9.055
  11.220         60.83	     8.544
  11.240         55.00	     8.124
  11.260         68.33	     9.055
  11.280         67.50	     9.000
  11.300         51.67	     7.874
  11.320         70.83	     9.220
  11.340         56.67	     8.246
  11.360         51.67	     7.874
  11.380         76.67	     9.592
  11.400         57.50	     8.307
  11.420         53.33	     8.000
  11.440         60.83	     8.544
  11.460         55.00	     8.124
  11.480         70.00	     9.165
  11.500         55.00	     8.124
  11.520         68.33	     9.055
  11.540         63.33	     8.718
  11.560         65.83	     8.888
  11.580         58.33	     8.367
  11.600         62.50	     8.660
  11.620         63.33	     8.718
  11.640         61.67	     8.602
  11.660         59.17	     8.426
  11.680         60.00	     8.485
  11.700         61.67	     8.602
  11.720         45.83	     7.416
  11.740         54.17	     8.062
  11.760         56.67	     8.246
  11.780         50.83	     7.810
  11.800         57.50	     8.307
  11.820         70.83	     9.220
  11.840         48.33	     7.616
  11.860         53.33	     8.000
  11.880         75.00	     9.487
  11.900         69.17	     9.110
  11.920         69.17	     9.110
  11.940         59.17	     8.426
  11.960         53.33	     8.000
  11.980         49.17	     7.681
  12.000         64.17	     8.775
  12.020         61.67	     8.602
  12.040         72.50	     9.327
  12.060         66.67	     8.944
  12.080         79.17	     9.747
  12.100         62.50	     8.660
  12.120         74.17	     9.434
  12.140         83.33	    10.000
  12.160         78.33	     9.695
  12.180         90.83	    10.440
  12.200         91.67	    10.488
  12.220         77.50	     9.644
  12.240        103.33	    11.136
  12.260         98.33	    10.863
  12.280        100.83	    11.000
  12.300         87.50	    10.247
  12.320         92.50	    10.536
  12.340         72.50	     9.327
  12.360         88.33	    10.296
  12.380         61.67	     8.602
  12.400         67.50	     9.000
  12.420         85.83	    10.149
  12.440         69.17	     9.110
  12.460         82.50	     9.950
  12.480         80.83	     9.849
  12.500         66.67	     8.944
  12.520         88.33	    10.296
  12.540         72.50	     9.327
  12.560         99.17	    10.909
  12.580         85.00	    10.100
  12.600         90.83	    10.440
  12.620         85.00	    10.100
  12.640         68.33	     9.055
  12.660         72.50	     9.327
  12.680         70.83	     9.220
  12.700         60.00	     8.485
  12.720         59.17	     8.426
  12.740         58.33	     8.367
  12.760         60.83	     8.544
  12.780         63.33	     8.718
  12.800         51.67	     7.874
  12.820         44.17	     7.280
  12.840         55.00	     8.124
  12.860         50.83	     7.810
  12.880         57.50	     8.307
  12.900         58.33	     8.367
  12.920         50.83	     7.810
  12.940         57.50	     8.307
  12.960         47.50	     7.550
  12.980         45.00	     7.348
  13.000         59.17	     8.426
  13.020         54.17	     8.062
  13.040         50.00	     7.746
  13.060         52.50	     7.937
  13.080         59.17	     8.426
  13.100         59.17	     8.426
  13.120         55.83	     8.185
  13.140         50.83	     7.810
  13.160         56.67	     8.246
  13.180         54.17	     8.062
  13.200         58.33	     8.367
  13.220         45.00	     7.348
  13.240         62.50	     8.660
  13.260         51.67	     7.874
  13.280         49.17	     7.681
  13.300         59.17	     8.426
  13.320         45.83	     7.416
  13.340         58.33	     8.367
  13.360         50.00	     7.746
  13.380         56.67	     8.246
  13.400         53.33	     8.000
  13.420         62.50	     8.660
  13.440         45.83	     7.416
  13.460         51.67	     7.874
  13.480         50.83	     7.810
  13.500         51.67	     7.874
  13.520         42.50	     7.141
  13.540         73.33	     9.381
  13.560         50.83	     7.810
  13.580         59.17	     8.426
  13.600         65.00	     8.832
  13.620         53.33	     8.000
  13.640         44.17	     7.280
  13.660         54.17	     8.062
  13.680         48.33	     7.616
  13.700         65.00	     8.832
  13.720         45.83	     7.416
  13.740         40.83	     7.000
  13.760         50.83	     7.810
  13.780         46.67	     7.483
  13.800         56.67	     8.246
  13.820         55.00	     8.124
  13.840         50.83	     7.810
  13.860         60.83	     8.544
  13.880         67.50	     9.000
  13.900         65.00	     8.832
  13.920         67.50	     9.000
  13.940         61.67	     8.602
  13.960         65.00	     8.832
  13.980         59.17	     8.426
  14.000         70.00	     9.165
  14.020         51.67	     7.874
  14.040         63.33	     8.718
  14.060         77.50	     9.644
  14.080         61.67	     8.602
  14.100         54.17	     8.062
  14.120         50.00	     7.746
  14.140         49.17	     7.681
  14.160         63.33	     8.718
  14.180         58.33	     8.367
  14.200         57.50	     8.307
  14.220         36.67	     6.633
  14.240         51.67	     7.874
  14.260         43.33	     7.211
  14.280         44.17	     7.280
  14.300         54.17	     8.062
  14.320         34.17	     6.403
  14.340         41.67	     7.071
  14.360         60.83	     8.544
  14.380         56.67	     8.246
  14.400         43.33	     7.211
