
Filename:
	C:\Program Files\Thermo Electron\WinXRD\Datafiles\F_HERMAN\GEO\GG_11A_SFT.raw

File Created:
	October 12, 2020 - 09:36 PM

Specimen Id:
	GG_11A_SFT

Specimen Name:
	

Specimen Description:
	

Comment:
Scan Type: 2Theta Scan
Start Angle: 3 deg.
Stop Angle: 65 deg.
Num Points: 3101
Step Size: 0.02 deg.
Scan Rate: 1.000000
Scan Mode: Continuous
Wavelength: 1.540562
\Kalpha1: 1.540562	\Kalpha2: 1.544390	\Kbeta: 1.392218

Optics:
		Detector:
			 Type: Fixed Slits
		Tube: 
			 Type: Fixed Slits


Datas:
 Pos [deg]       Rate [CPS]      ESD [-]

Range 1 ---> Iteration 1
   3.000        398.33	    21.863
   3.020        371.67	    21.119
   3.040        376.67	    21.260
   3.060        362.50	    20.857
   3.080        380.83	    21.378
   3.100        380.00	    21.354
   3.120        401.67	    21.954
   3.140        395.00	    21.772
   3.160        390.00	    21.633
   3.180        350.00	    20.494
   3.200        356.67	    20.688
   3.220        366.67	    20.976
   3.240        352.50	    20.567
   3.260        357.50	    20.712
   3.280        362.50	    20.857
   3.300        363.33	    20.881
   3.320        357.50	    20.712
   3.340        335.83	    20.075
   3.360        360.00	    20.785
   3.380        347.50	    20.421
   3.400        320.00	    19.596
   3.420        318.33	    19.545
   3.440        350.00	    20.494
   3.460        356.67	    20.688
   3.480        345.83	    20.372
   3.500        302.50	    19.053
   3.520        315.83	    19.468
   3.540        331.67	    19.950
   3.560        328.33	    19.849
   3.580        328.33	    19.849
   3.600        323.33	    19.698
   3.620        302.50	    19.053
   3.640        339.17	    20.174
   3.660        337.50	    20.125
   3.680        286.67	    18.547
   3.700        313.33	    19.391
   3.720        298.33	    18.921
   3.740        303.33	    19.079
   3.760        293.33	    18.762
   3.780        299.17	    18.947
   3.800        283.33	    18.439
   3.820        281.67	    18.385
   3.840        333.33	    20.000
   3.860        315.83	    19.468
   3.880        295.00	    18.815
   3.900        301.67	    19.026
   3.920        311.67	    19.339
   3.940        277.50	    18.248
   3.960        313.33	    19.391
   3.980        289.17	    18.628
   4.000        313.33	    19.391
   4.020        298.33	    18.921
   4.040        272.50	    18.083
   4.060        290.00	    18.655
   4.080        271.67	    18.055
   4.100        256.67	    17.550
   4.120        274.17	    18.138
   4.140        260.00	    17.664
   4.160        292.50	    18.735
   4.180        266.67	    17.889
   4.200        254.17	    17.464
   4.220        274.17	    18.138
   4.240        255.83	    17.521
   4.260        263.33	    17.776
   4.280        252.50	    17.407
   4.300        255.00	    17.493
   4.320        239.17	    16.941
   4.340        245.00	    17.146
   4.360        265.00	    17.833
   4.380        259.17	    17.635
   4.400        238.33	    16.912
   4.420        224.17	    16.401
   4.440        224.17	    16.401
   4.460        221.67	    16.310
   4.480        247.50	    17.234
   4.500        245.00	    17.146
   4.520        254.17	    17.464
   4.540        269.17	    17.972
   4.560        252.50	    17.407
   4.580        245.83	    17.176
   4.600        242.50	    17.059
   4.620        243.33	    17.088
   4.640        250.00	    17.321
   4.660        250.00	    17.321
   4.680        245.00	    17.146
   4.700        250.83	    17.349
   4.720        218.33	    16.186
   4.740        258.33	    17.607
   4.760        220.83	    16.279
   4.780        222.50	    16.340
   4.800        230.00	    16.613
   4.820        252.50	    17.407
   4.840        215.83	    16.093
   4.860        235.00	    16.793
   4.880        235.00	    16.793
   4.900        206.67	    15.748
   4.920        231.67	    16.673
   4.940        208.33	    15.811
   4.960        230.00	    16.613
   4.980        199.17	    15.460
   5.000        240.83	    17.000
   5.020        248.33	    17.263
   5.040        224.17	    16.401
   5.060        221.67	    16.310
   5.080        213.33	    16.000
   5.100        212.50	    15.969
   5.120        205.83	    15.716
   5.140        201.67	    15.556
   5.160        228.33	    16.553
   5.180        212.50	    15.969
   5.200        244.17	    17.117
   5.220        208.33	    15.811
   5.240        203.33	    15.620
   5.260        238.33	    16.912
   5.280        225.00	    16.432
   5.300        221.67	    16.310
   5.320        198.33	    15.427
   5.340        224.17	    16.401
   5.360        215.00	    16.062
   5.380        199.17	    15.460
   5.400        202.50	    15.588
   5.420        210.83	    15.906
   5.440        210.00	    15.875
   5.460        222.50	    16.340
   5.480        196.67	    15.362
   5.500        219.17	    16.217
   5.520        211.67	    15.937
   5.540        222.50	    16.340
   5.560        193.33	    15.232
   5.580        211.67	    15.937
   5.600        208.33	    15.811
   5.620        248.33	    17.263
   5.640        226.67	    16.492
   5.660        200.00	    15.492
   5.680        210.83	    15.906
   5.700        210.00	    15.875
   5.720        204.17	    15.652
   5.740        206.67	    15.748
   5.760        190.00	    15.100
   5.780        243.33	    17.088
   5.800        242.50	    17.059
   5.820        236.67	    16.852
   5.840        235.00	    16.793
   5.860        248.33	    17.263
   5.880        240.83	    17.000
   5.900        255.83	    17.521
   5.920        253.33	    17.436
   5.940        233.33	    16.733
   5.960        260.00	    17.664
   5.980        277.50	    18.248
   6.000        272.50	    18.083
   6.020        278.33	    18.276
   6.040        260.83	    17.692
   6.060        290.83	    18.682
   6.080        335.83	    20.075
   6.100        322.50	    19.672
   6.120        372.50	    21.142
   6.140        426.67	    22.627
   6.160        422.50	    22.517
   6.180        487.50	    24.187
   6.200        537.50	    25.397
   6.220        569.17	    26.134
   6.240        672.50	    28.408
   6.260        661.67	    28.178
   6.280        808.33	    31.145
   6.300        786.67	    30.725
   6.320        745.00	    29.900
   6.340        730.83	    29.614
   6.360        747.50	    29.950
   6.380        675.00	    28.460
   6.400        665.83	    28.267
   6.420        592.50	    26.665
   6.440        515.83	    24.880
   6.460        430.00	    22.716
   6.480        420.83	    22.472
   6.500        356.67	    20.688
   6.520        344.17	    20.322
   6.540        355.00	    20.640
   6.560        338.33	    20.149
   6.580        320.83	    19.621
   6.600        323.33	    19.698
   6.620        314.17	    19.416
   6.640        319.17	    19.570
   6.660        285.83	    18.520
   6.680        313.33	    19.391
   6.700        293.33	    18.762
   6.720        254.17	    17.464
   6.740        307.50	    19.209
   6.760        261.67	    17.720
   6.780        257.50	    17.578
   6.800        290.00	    18.655
   6.820        281.67	    18.385
   6.840        252.50	    17.407
   6.860        262.50	    17.748
   6.880        250.83	    17.349
   6.900        229.17	    16.583
   6.920        250.83	    17.349
   6.940        232.50	    16.703
   6.960        262.50	    17.748
   6.980        240.00	    16.971
   7.000        220.83	    16.279
   7.020        266.67	    17.889
   7.040        237.50	    16.882
   7.060        233.33	    16.733
   7.080        223.33	    16.371
   7.100        255.83	    17.521
   7.120        250.00	    17.321
   7.140        212.50	    15.969
   7.160        216.67	    16.125
   7.180        238.33	    16.912
   7.200        231.67	    16.673
   7.220        223.33	    16.371
   7.240        206.67	    15.748
   7.260        207.50	    15.780
   7.280        217.50	    16.155
   7.300        221.67	    16.310
   7.320        226.67	    16.492
   7.340        198.33	    15.427
   7.360        208.33	    15.811
   7.380        225.00	    16.432
   7.400        190.00	    15.100
   7.420        230.83	    16.643
   7.440        201.67	    15.556
   7.460        205.00	    15.684
   7.480        175.00	    14.491
   7.500        187.50	    15.000
   7.520        207.50	    15.780
   7.540        170.83	    14.318
   7.560        199.17	    15.460
   7.580        195.83	    15.330
   7.600        187.50	    15.000
   7.620        196.67	    15.362
   7.640        204.17	    15.652
   7.660        178.33	    14.629
   7.680        197.50	    15.395
   7.700        196.67	    15.362
   7.720        164.17	    14.036
   7.740        154.17	    13.601
   7.760        185.00	    14.900
   7.780        165.83	    14.107
   7.800        172.50	    14.387
   7.820        184.17	    14.866
   7.840        179.17	    14.663
   7.860        196.67	    15.362
   7.880        201.67	    15.556
   7.900        193.33	    15.232
   7.920        167.50	    14.177
   7.940        162.50	    13.964
   7.960        192.50	    15.199
   7.980        175.00	    14.491
   8.000        184.17	    14.866
   8.020        163.33	    14.000
   8.040        182.50	    14.799
   8.060        213.33	    16.000
   8.080        174.17	    14.457
   8.100        186.67	    14.967
   8.120        160.00	    13.856
   8.140        197.50	    15.395
   8.160        212.50	    15.969
   8.180        180.00	    14.697
   8.200        200.83	    15.524
   8.220        203.33	    15.620
   8.240        217.50	    16.155
   8.260        192.50	    15.199
   8.280        193.33	    15.232
   8.300        213.33	    16.000
   8.320        210.00	    15.875
   8.340        218.33	    16.186
   8.360        200.83	    15.524
   8.380        209.17	    15.843
   8.400        229.17	    16.583
   8.420        235.00	    16.793
   8.440        257.50	    17.578
   8.460        262.50	    17.748
   8.480        245.00	    17.146
   8.500        273.33	    18.111
   8.520        256.67	    17.550
   8.540        269.17	    17.972
   8.560        260.83	    17.692
   8.580        280.83	    18.358
   8.600        320.00	    19.596
   8.620        293.33	    18.762
   8.640        323.33	    19.698
   8.660        336.67	    20.100
   8.680        330.00	    19.900
   8.700        361.67	    20.833
   8.720        367.50	    21.000
   8.740        397.50	    21.840
   8.760        425.00	    22.583
   8.780        474.17	    23.854
   8.800        517.50	    24.920
   8.820        502.50	    24.556
   8.840        581.67	    26.420
   8.860        673.33	    28.425
   8.880        717.50	    29.343
   8.900        860.00	    32.125
   8.920        957.50	    33.897
   8.940       1060.00	    35.665
   8.960       1045.83	    35.426
   8.980        979.17	    34.278
   9.000        967.50	    34.073
   9.020        909.17	    33.030
   9.040        957.50	    33.897
   9.060        766.67	    30.332
   9.080        544.17	    25.554
   9.100        443.33	    23.065
   9.120        360.83	    20.809
   9.140        313.33	    19.391
   9.160        290.00	    18.655
   9.180        255.00	    17.493
   9.200        244.17	    17.117
   9.220        251.67	    17.378
   9.240        246.67	    17.205
   9.260        247.50	    17.234
   9.280        234.17	    16.763
   9.300        209.17	    15.843
   9.320        205.83	    15.716
   9.340        213.33	    16.000
   9.360        208.33	    15.811
   9.380        201.67	    15.556
   9.400        193.33	    15.232
   9.420        204.17	    15.652
   9.440        201.67	    15.556
   9.460        219.17	    16.217
   9.480        244.17	    17.117
   9.500        272.50	    18.083
   9.520        257.50	    17.578
   9.540        282.50	    18.412
   9.560        275.00	    18.166
   9.580        266.67	    17.889
   9.600        302.50	    19.053
   9.620        244.17	    17.117
   9.640        227.50	    16.523
   9.660        200.83	    15.524
   9.680        155.83	    13.675
   9.700        155.83	    13.675
   9.720        129.17	    12.450
   9.740        156.67	    13.711
   9.760        127.50	    12.369
   9.780        129.17	    12.450
   9.800        107.50	    11.358
   9.820        130.00	    12.490
   9.840        130.00	    12.490
   9.860        114.17	    11.705
   9.880        134.17	    12.689
   9.900        137.50	    12.845
   9.920        118.33	    11.916
   9.940        125.00	    12.247
   9.960        125.00	    12.247
   9.980        123.33	    12.166
  10.000        116.67	    11.832
  10.020        128.33	    12.410
  10.040         91.67	    10.488
  10.060        113.33	    11.662
  10.080         96.67	    10.770
  10.100        106.67	    11.314
  10.120        105.00	    11.225
  10.140        119.17	    11.958
  10.160        101.67	    11.045
  10.180        120.00	    12.000
  10.200        120.83	    12.042
  10.220        103.33	    11.136
  10.240        107.50	    11.358
  10.260        120.83	    12.042
  10.280        104.17	    11.180
  10.300        110.83	    11.533
  10.320        113.33	    11.662
  10.340        113.33	    11.662
  10.360        110.00	    11.489
  10.380        105.83	    11.269
  10.400        107.50	    11.358
  10.420         94.17	    10.630
  10.440        124.17	    12.207
  10.460        128.33	    12.410
  10.480        146.67	    13.266
  10.500        168.33	    14.213
  10.520        194.17	    15.264
  10.540        232.50	    16.703
  10.560        226.67	    16.492
  10.580        287.50	    18.574
  10.600        302.50	    19.053
  10.620        305.83	    19.157
  10.640        295.83	    18.841
  10.660        262.50	    17.748
  10.680        272.50	    18.083
  10.700        259.17	    17.635
  10.720        226.67	    16.492
  10.740        185.00	    14.900
  10.760        142.50	    13.077
  10.780        126.67	    12.329
  10.800        120.00	    12.000
  10.820        114.17	    11.705
  10.840        119.17	    11.958
  10.860        105.83	    11.269
  10.880         92.50	    10.536
  10.900         90.00	    10.392
  10.920        103.33	    11.136
  10.940         91.67	    10.488
  10.960        111.67	    11.576
  10.980        100.00	    10.954
  11.000         88.33	    10.296
  11.020        125.00	    12.247
  11.040         95.00	    10.677
  11.060        109.17	    11.446
  11.080        118.33	    11.916
  11.100        109.17	    11.446
  11.120        125.00	    12.247
  11.140         98.33	    10.863
  11.160         99.17	    10.909
  11.180        118.33	    11.916
  11.200         93.33	    10.583
  11.220        121.67	    12.083
  11.240        105.00	    11.225
  11.260        110.83	    11.533
  11.280        111.67	    11.576
  11.300        110.83	    11.533
  11.320        115.83	    11.790
  11.340        103.33	    11.136
  11.360         97.50	    10.817
  11.380        114.17	    11.705
  11.400        100.83	    11.000
  11.420        116.67	    11.832
  11.440        120.00	    12.000
  11.460        114.17	    11.705
  11.480        122.50	    12.124
  11.500        105.83	    11.269
  11.520        105.00	    11.225
  11.540         98.33	    10.863
  11.560         92.50	    10.536
  11.580        114.17	    11.705
  11.600        106.67	    11.314
  11.620        105.83	    11.269
  11.640        114.17	    11.705
  11.660        126.67	    12.329
  11.680        140.00	    12.961
  11.700        140.83	    13.000
  11.720        125.83	    12.288
  11.740        129.17	    12.450
  11.760        140.83	    13.000
  11.780        135.00	    12.728
  11.800        121.67	    12.083
  11.820        151.67	    13.491
  11.840        144.17	    13.153
  11.860        143.33	    13.115
  11.880        150.83	    13.454
  11.900        157.50	    13.748
  11.920        162.50	    13.964
  11.940        145.83	    13.229
  11.960        148.33	    13.342
  11.980        162.50	    13.964
  12.000        160.00	    13.856
  12.020        171.67	    14.353
  12.040        228.33	    16.553
  12.060        214.17	    16.031
  12.080        231.67	    16.673
  12.100        306.67	    19.183
  12.120        348.33	    20.445
  12.140        425.00	    22.583
  12.160        563.33	    26.000
  12.180        709.17	    29.172
  12.200        951.67	    33.793
  12.220       1270.00	    39.038
  12.240       1504.17	    42.485
  12.260       1725.83	    45.508
  12.280       1848.33	    47.096
  12.300       1895.83	    47.697
  12.320       1896.67	    47.707
  12.340       2029.17	    49.346
  12.360       1961.67	    48.518
  12.380       1615.00	    44.023
  12.400       1244.17	    38.639
  12.420       1000.00	    34.641
  12.440        903.33	    32.924
  12.460        915.83	    33.151
  12.480       1011.67	    34.843
  12.500       1200.83	    37.961
  12.520       1203.33	    38.000
  12.540       1347.50	    40.212
  12.560       1398.33	    40.963
  12.580       1336.67	    40.050
  12.600       1342.50	    40.137
  12.620       1262.50	    38.923
  12.640       1303.33	    39.547
  12.660       1137.50	    36.946
  12.680        867.50	    32.265
  12.700        675.83	    28.478
  12.720        431.67	    22.760
  12.740        317.50	    19.519
  12.760        252.50	    17.407
  12.780        252.50	    17.407
  12.800        235.83	    16.823
  12.820        210.00	    15.875
  12.840        188.33	    15.033
  12.860        163.33	    14.000
  12.880        152.50	    13.528
  12.900        137.50	    12.845
  12.920        131.67	    12.570
  12.940        135.83	    12.767
  12.960        135.00	    12.728
  12.980        124.17	    12.207
  13.000        124.17	    12.207
  13.020        119.17	    11.958
  13.040        103.33	    11.136
  13.060        105.00	    11.225
  13.080        103.33	    11.136
  13.100        108.33	    11.402
  13.120         95.83	    10.724
  13.140        100.00	    10.954
  13.160        113.33	    11.662
  13.180         96.67	    10.770
  13.200         90.83	    10.440
  13.220        101.67	    11.045
  13.240         81.67	     9.899
  13.260        107.50	    11.358
  13.280         94.17	    10.630
  13.300         85.83	    10.149
  13.320        111.67	    11.576
  13.340         85.00	    10.100
  13.360         90.83	    10.440
  13.380         99.17	    10.909
  13.400        106.67	    11.314
  13.420         95.83	    10.724
  13.440         78.33	     9.695
  13.460         79.17	     9.747
  13.480        124.17	    12.207
  13.500        109.17	    11.446
  13.520         90.83	    10.440
  13.540         93.33	    10.583
  13.560         91.67	    10.488
  13.580        105.00	    11.225
  13.600         95.83	    10.724
  13.620         85.83	    10.149
  13.640         85.83	    10.149
  13.660        104.17	    11.180
  13.680         88.33	    10.296
  13.700         95.00	    10.677
  13.720        106.67	    11.314
  13.740         96.67	    10.770
  13.760         87.50	    10.247
  13.780         93.33	    10.583
  13.800         89.17	    10.344
  13.820         87.50	    10.247
  13.840         92.50	    10.536
  13.860        108.33	    11.402
  13.880        112.50	    11.619
  13.900        102.50	    11.091
  13.920        108.33	    11.402
  13.940        119.17	    11.958
  13.960        111.67	    11.576
  13.980        127.50	    12.369
  14.000        111.67	    11.576
  14.020        102.50	    11.091
  14.040         80.83	     9.849
  14.060         95.83	    10.724
  14.080         86.67	    10.198
  14.100         84.17	    10.050
  14.120         80.83	     9.849
  14.140         81.67	     9.899
  14.160         64.17	     8.775
  14.180         66.67	     8.944
  14.200         85.83	    10.149
  14.220         59.17	     8.426
  14.240         63.33	     8.718
  14.260         72.50	     9.327
  14.280         64.17	     8.775
  14.300         70.00	     9.165
  14.320         63.33	     8.718
  14.340         70.00	     9.165
  14.360         65.83	     8.888
  14.380         70.00	     9.165
  14.400         64.17	     8.775
