
Filename:
	C:\Program Files\Thermo Electron\WinXRD\Datafiles\F_HERMAN\GEO\GG_1_SFT.raw

File Created:
	October 12, 2020 - 12:35 PM

Specimen Id:
	GG1 SFT

Specimen Name:
	

Specimen Description:
	

Comment:
Scan Type: 2Theta Scan
Start Angle: 3 deg.
Stop Angle: 65 deg.
Num Points: 3101
Step Size: 0.02 deg.
Scan Rate: 1.000000
Scan Mode: Continuous
Wavelength: 1.540562
\Kalpha1: 1.540562	\Kalpha2: 1.544390	\Kbeta: 1.392218

Optics:
		Detector:
			 Type: Fixed Slits
		Tube: 
			 Type: Fixed Slits


Datas:
 Pos [deg]       Rate [CPS]      ESD [-]

Range 1 ---> Iteration 1
   3.000        382.50	    21.424
   3.020        386.67	    21.541
   3.040        372.50	    21.142
   3.060        375.00	    21.213
   3.080        370.83	    21.095
   3.100        368.33	    21.024
   3.120        380.00	    21.354
   3.140        359.17	    20.761
   3.160        380.83	    21.378
   3.180        400.00	    21.909
   3.200        361.67	    20.833
   3.220        344.17	    20.322
   3.240        355.83	    20.664
   3.260        342.50	    20.273
   3.280        349.17	    20.469
   3.300        319.17	    19.570
   3.320        335.83	    20.075
   3.340        348.33	    20.445
   3.360        309.17	    19.261
   3.380        379.17	    21.331
   3.400        337.50	    20.125
   3.420        364.17	    20.905
   3.440        318.33	    19.545
   3.460        316.67	    19.494
   3.480        330.00	    19.900
   3.500        325.00	    19.748
   3.520        330.83	    19.925
   3.540        325.00	    19.748
   3.560        315.00	    19.442
   3.580        301.67	    19.026
   3.600        325.83	    19.774
   3.620        296.67	    18.868
   3.640        333.33	    20.000
   3.660        310.83	    19.313
   3.680        288.33	    18.601
   3.700        281.67	    18.385
   3.720        266.67	    17.889
   3.740        284.17	    18.466
   3.760        282.50	    18.412
   3.780        294.17	    18.788
   3.800        296.67	    18.868
   3.820        270.83	    18.028
   3.840        300.83	    19.000
   3.860        266.67	    17.889
   3.880        299.17	    18.947
   3.900        299.17	    18.947
   3.920        294.17	    18.788
   3.940        265.83	    17.861
   3.960        264.17	    17.804
   3.980        271.67	    18.055
   4.000        276.67	    18.221
   4.020        250.00	    17.321
   4.040        280.83	    18.358
   4.060        297.50	    18.894
   4.080        268.33	    17.944
   4.100        262.50	    17.748
   4.120        275.83	    18.193
   4.140        251.67	    17.378
   4.160        282.50	    18.412
   4.180        265.00	    17.833
   4.200        255.00	    17.493
   4.220        265.83	    17.861
   4.240        250.83	    17.349
   4.260        245.83	    17.176
   4.280        247.50	    17.234
   4.300        239.17	    16.941
   4.320        243.33	    17.088
   4.340        230.00	    16.613
   4.360        235.00	    16.793
   4.380        245.00	    17.146
   4.400        238.33	    16.912
   4.420        213.33	    16.000
   4.440        235.00	    16.793
   4.460        237.50	    16.882
   4.480        239.17	    16.941
   4.500        248.33	    17.263
   4.520        225.00	    16.432
   4.540        242.50	    17.059
   4.560        232.50	    16.703
   4.580        252.50	    17.407
   4.600        220.00	    16.248
   4.620        236.67	    16.852
   4.640        227.50	    16.523
   4.660        222.50	    16.340
   4.680        233.33	    16.733
   4.700        235.83	    16.823
   4.720        223.33	    16.371
   4.740        182.50	    14.799
   4.760        210.83	    15.906
   4.780        206.67	    15.748
   4.800        221.67	    16.310
   4.820        210.00	    15.875
   4.840        215.83	    16.093
   4.860        210.00	    15.875
   4.880        200.83	    15.524
   4.900        215.83	    16.093
   4.920        210.83	    15.906
   4.940        210.83	    15.906
   4.960        201.67	    15.556
   4.980        180.00	    14.697
   5.000        206.67	    15.748
   5.020        212.50	    15.969
   5.040        196.67	    15.362
   5.060        174.17	    14.457
   5.080        207.50	    15.780
   5.100        216.67	    16.125
   5.120        205.00	    15.684
   5.140        176.67	    14.560
   5.160        193.33	    15.232
   5.180        205.83	    15.716
   5.200        214.17	    16.031
   5.220        200.83	    15.524
   5.240        192.50	    15.199
   5.260        203.33	    15.620
   5.280        202.50	    15.588
   5.300        194.17	    15.264
   5.320        185.83	    14.933
   5.340        191.67	    15.166
   5.360        202.50	    15.588
   5.380        201.67	    15.556
   5.400        189.17	    15.067
   5.420        230.00	    16.613
   5.440        173.33	    14.422
   5.460        169.17	    14.248
   5.480        193.33	    15.232
   5.500        175.00	    14.491
   5.520        175.00	    14.491
   5.540        187.50	    15.000
   5.560        175.00	    14.491
   5.580        180.83	    14.731
   5.600        171.67	    14.353
   5.620        166.67	    14.142
   5.640        193.33	    15.232
   5.660        163.33	    14.000
   5.680        169.17	    14.248
   5.700        205.00	    15.684
   5.720        172.50	    14.387
   5.740        203.33	    15.620
   5.760        165.83	    14.107
   5.780        193.33	    15.232
   5.800        175.83	    14.526
   5.820        201.67	    15.556
   5.840        167.50	    14.177
   5.860        173.33	    14.422
   5.880        202.50	    15.588
   5.900        183.33	    14.832
   5.920        158.33	    13.784
   5.940        173.33	    14.422
   5.960        172.50	    14.387
   5.980        170.00	    14.283
   6.000        172.50	    14.387
   6.020        176.67	    14.560
   6.040        186.67	    14.967
   6.060        188.33	    15.033
   6.080        180.00	    14.697
   6.100        187.50	    15.000
   6.120        164.17	    14.036
   6.140        187.50	    15.000
   6.160        161.67	    13.928
   6.180        250.83	    17.349
   6.200        206.67	    15.748
   6.220        241.67	    17.029
   6.240        211.67	    15.937
   6.260        236.67	    16.852
   6.280        232.50	    16.703
   6.300        248.33	    17.263
   6.320        265.00	    17.833
   6.340        268.33	    17.944
   6.360        264.17	    17.804
   6.380        271.67	    18.055
   6.400        215.00	    16.062
   6.420        230.83	    16.643
   6.440        149.17	    13.379
   6.460        186.67	    14.967
   6.480        170.00	    14.283
   6.500        171.67	    14.353
   6.520        186.67	    14.967
   6.540        146.67	    13.266
   6.560        145.83	    13.229
   6.580        175.00	    14.491
   6.600        173.33	    14.422
   6.620        150.00	    13.416
   6.640        164.17	    14.036
   6.660        160.83	    13.892
   6.680        174.17	    14.457
   6.700        155.83	    13.675
   6.720        164.17	    14.036
   6.740        155.83	    13.675
   6.760        157.50	    13.748
   6.780        151.67	    13.491
   6.800        155.00	    13.638
   6.820        158.33	    13.784
   6.840        155.00	    13.638
   6.860        160.83	    13.892
   6.880        160.83	    13.892
   6.900        141.67	    13.038
   6.920        136.67	    12.806
   6.940        136.67	    12.806
   6.960        159.17	    13.820
   6.980        151.67	    13.491
   7.000        139.17	    12.923
   7.020        146.67	    13.266
   7.040        148.33	    13.342
   7.060        158.33	    13.784
   7.080        155.83	    13.675
   7.100        134.17	    12.689
   7.120        151.67	    13.491
   7.140        129.17	    12.450
   7.160        153.33	    13.565
   7.180        131.67	    12.570
   7.200        139.17	    12.923
   7.220        130.00	    12.490
   7.240        133.33	    12.649
   7.260        152.50	    13.528
   7.280        145.83	    13.229
   7.300        140.83	    13.000
   7.320        166.67	    14.142
   7.340        162.50	    13.964
   7.360        130.83	    12.530
   7.380        107.50	    11.358
   7.400        130.00	    12.490
   7.420        137.50	    12.845
   7.440        138.33	    12.884
   7.460        123.33	    12.166
   7.480        146.67	    13.266
   7.500        132.50	    12.610
   7.520        138.33	    12.884
   7.540        147.50	    13.304
   7.560        116.67	    11.832
   7.580        134.17	    12.689
   7.600        122.50	    12.124
   7.620        138.33	    12.884
   7.640        131.67	    12.570
   7.660        124.17	    12.207
   7.680        116.67	    11.832
   7.700        138.33	    12.884
   7.720        130.83	    12.530
   7.740        122.50	    12.124
   7.760        128.33	    12.410
   7.780        121.67	    12.083
   7.800        115.83	    11.790
   7.820        131.67	    12.570
   7.840        127.50	    12.369
   7.860        150.83	    13.454
   7.880        135.00	    12.728
   7.900        143.33	    13.115
   7.920        135.00	    12.728
   7.940        118.33	    11.916
   7.960        125.00	    12.247
   7.980        125.83	    12.288
   8.000        103.33	    11.136
   8.020        126.67	    12.329
   8.040        120.83	    12.042
   8.060        121.67	    12.083
   8.080        131.67	    12.570
   8.100        130.00	    12.490
   8.120        125.83	    12.288
   8.140        135.00	    12.728
   8.160        124.17	    12.207
   8.180        125.83	    12.288
   8.200        127.50	    12.369
   8.220        119.17	    11.958
   8.240        121.67	    12.083
   8.260        145.83	    13.229
   8.280        121.67	    12.083
   8.300        149.17	    13.379
   8.320        116.67	    11.832
   8.340        140.00	    12.961
   8.360        141.67	    13.038
   8.380        119.17	    11.958
   8.400        128.33	    12.410
   8.420        121.67	    12.083
   8.440        115.00	    11.747
   8.460        157.50	    13.748
   8.480        128.33	    12.410
   8.500        146.67	    13.266
   8.520        148.33	    13.342
   8.540        154.17	    13.601
   8.560        140.00	    12.961
   8.580        149.17	    13.379
   8.600        162.50	    13.964
   8.620        170.00	    14.283
   8.640        163.33	    14.000
   8.660        156.67	    13.711
   8.680        175.83	    14.526
   8.700        185.00	    14.900
   8.720        174.17	    14.457
   8.740        175.00	    14.491
   8.760        216.67	    16.125
   8.780        193.33	    15.232
   8.800        206.67	    15.748
   8.820        261.67	    17.720
   8.840        231.67	    16.673
   8.860        299.17	    18.947
   8.880        319.17	    19.570
   8.900        366.67	    20.976
   8.920        396.67	    21.817
   8.940        556.67	    25.846
   8.960        594.17	    26.702
   8.980        703.33	    29.052
   9.000        659.17	    28.125
   9.020        551.67	    25.729
   9.040        415.83	    22.338
   9.060        276.67	    18.221
   9.080        181.67	    14.765
   9.100        147.50	    13.304
   9.120        175.83	    14.526
   9.140        159.17	    13.820
   9.160        150.83	    13.454
   9.180        136.67	    12.806
   9.200        110.83	    11.533
   9.220        128.33	    12.410
   9.240        139.17	    12.923
   9.260        139.17	    12.923
   9.280        128.33	    12.410
   9.300        123.33	    12.166
   9.320        118.33	    11.916
   9.340        123.33	    12.166
   9.360         98.33	    10.863
   9.380        115.83	    11.790
   9.400         95.00	    10.677
   9.420        108.33	    11.402
   9.440        106.67	    11.314
   9.460        110.83	    11.533
   9.480        116.67	    11.832
   9.500         92.50	    10.536
   9.520        103.33	    11.136
   9.540        121.67	    12.083
   9.560        134.17	    12.689
   9.580        101.67	    11.045
   9.600        105.00	    11.225
   9.620         90.83	    10.440
   9.640         95.00	    10.677
   9.660         99.17	    10.909
   9.680         81.67	     9.899
   9.700         99.17	    10.909
   9.720         91.67	    10.488
   9.740         91.67	    10.488
   9.760         89.17	    10.344
   9.780         80.00	     9.798
   9.800         85.83	    10.149
   9.820         85.83	    10.149
   9.840         90.83	    10.440
   9.860        105.00	    11.225
   9.880        102.50	    11.091
   9.900         81.67	     9.899
   9.920         85.00	    10.100
   9.940         88.33	    10.296
   9.960         95.00	    10.677
   9.980         87.50	    10.247
  10.000         84.17	    10.050
  10.020         65.00	     8.832
  10.040         79.17	     9.747
  10.060         77.50	     9.644
  10.080         75.00	     9.487
  10.100         76.67	     9.592
  10.120         78.33	     9.695
  10.140         89.17	    10.344
  10.160         90.83	    10.440
  10.180         91.67	    10.488
  10.200         95.83	    10.724
  10.220         97.50	    10.817
  10.240         87.50	    10.247
  10.260         86.67	    10.198
  10.280         72.50	     9.327
  10.300         85.83	    10.149
  10.320         92.50	    10.536
  10.340         90.83	    10.440
  10.360         90.00	    10.392
  10.380         84.17	    10.050
  10.400         86.67	    10.198
  10.420         94.17	    10.630
  10.440        108.33	    11.402
  10.460         95.00	    10.677
  10.480         95.83	    10.724
  10.500         89.17	    10.344
  10.520         93.33	    10.583
  10.540        110.83	    11.533
  10.560         99.17	    10.909
  10.580        128.33	    12.410
  10.600        106.67	    11.314
  10.620        128.33	    12.410
  10.640        125.00	    12.247
  10.660        130.83	    12.530
  10.680        109.17	    11.446
  10.700        104.17	    11.180
  10.720         85.00	    10.100
  10.740         80.00	     9.798
  10.760         88.33	    10.296
  10.780         81.67	     9.899
  10.800         80.83	     9.849
  10.820         83.33	    10.000
  10.840         88.33	    10.296
  10.860         90.83	    10.440
  10.880         77.50	     9.644
  10.900         97.50	    10.817
  10.920         80.00	     9.798
  10.940         67.50	     9.000
  10.960         82.50	     9.950
  10.980         63.33	     8.718
  11.000         78.33	     9.695
  11.020         71.67	     9.274
  11.040         78.33	     9.695
  11.060         79.17	     9.747
  11.080         85.83	    10.149
  11.100         90.83	    10.440
  11.120         76.67	     9.592
  11.140         83.33	    10.000
  11.160         75.00	     9.487
  11.180         68.33	     9.055
  11.200         82.50	     9.950
  11.220         95.83	    10.724
  11.240         75.00	     9.487
  11.260         76.67	     9.592
  11.280         70.00	     9.165
  11.300         80.00	     9.798
  11.320        101.67	    11.045
  11.340         75.83	     9.539
  11.360         72.50	     9.327
  11.380         74.17	     9.434
  11.400         78.33	     9.695
  11.420         69.17	     9.110
  11.440         82.50	     9.950
  11.460         82.50	     9.950
  11.480         75.83	     9.539
  11.500         70.00	     9.165
  11.520         60.83	     8.544
  11.540         75.00	     9.487
  11.560         73.33	     9.381
  11.580         75.83	     9.539
  11.600         76.67	     9.592
  11.620         76.67	     9.592
  11.640         74.17	     9.434
  11.660         74.17	     9.434
  11.680         78.33	     9.695
  11.700         68.33	     9.055
  11.720         87.50	    10.247
  11.740         71.67	     9.274
  11.760         75.83	     9.539
  11.780         80.83	     9.849
  11.800         71.67	     9.274
  11.820         68.33	     9.055
  11.840         70.00	     9.165
  11.860         70.00	     9.165
  11.880         77.50	     9.644
  11.900         68.33	     9.055
  11.920         65.00	     8.832
  11.940         89.17	    10.344
  11.960         77.50	     9.644
  11.980         74.17	     9.434
  12.000         85.00	    10.100
  12.020         85.83	    10.149
  12.040        107.50	    11.358
  12.060         86.67	    10.198
  12.080         97.50	    10.817
  12.100         82.50	     9.950
  12.120         96.67	    10.770
  12.140        111.67	    11.576
  12.160        114.17	    11.705
  12.180        102.50	    11.091
  12.200        123.33	    12.166
  12.220        175.83	    14.526
  12.240        169.17	    14.248
  12.260        191.67	    15.166
  12.280        248.33	    17.263
  12.300        271.67	    18.055
  12.320        242.50	    17.059
  12.340        238.33	    16.912
  12.360        185.00	    14.900
  12.380        172.50	    14.387
  12.400        152.50	    13.528
  12.420        160.83	    13.892
  12.440        190.83	    15.133
  12.460        172.50	    14.387
  12.480        228.33	    16.553
  12.500        242.50	    17.059
  12.520        290.00	    18.655
  12.540        376.67	    21.260
  12.560        399.17	    21.886
  12.580        518.33	    24.940
  12.600        580.00	    26.382
  12.620        520.00	    24.980
  12.640        497.50	    24.434
  12.660        345.83	    20.372
  12.680        218.33	    16.186
  12.700        171.67	    14.353
  12.720        125.00	    12.247
  12.740        107.50	    11.358
  12.760        110.00	    11.489
  12.780         90.83	    10.440
  12.800         91.67	    10.488
  12.820         84.17	    10.050
  12.840         85.83	    10.149
  12.860         85.83	    10.149
  12.880         79.17	     9.747
  12.900         81.67	     9.899
  12.920         83.33	    10.000
  12.940         58.33	     8.367
  12.960         71.67	     9.274
  12.980         70.00	     9.165
  13.000         60.00	     8.485
  13.020         73.33	     9.381
  13.040         58.33	     8.367
  13.060         67.50	     9.000
  13.080         75.83	     9.539
  13.100         65.00	     8.832
  13.120         79.17	     9.747
  13.140         60.83	     8.544
  13.160         64.17	     8.775
  13.180         66.67	     8.944
  13.200         62.50	     8.660
  13.220         60.00	     8.485
  13.240         61.67	     8.602
  13.260         57.50	     8.307
  13.280         64.17	     8.775
  13.300         56.67	     8.246
  13.320         71.67	     9.274
  13.340         57.50	     8.307
  13.360         63.33	     8.718
  13.380         60.00	     8.485
  13.400         72.50	     9.327
  13.420         59.17	     8.426
  13.440         71.67	     9.274
  13.460         90.00	    10.392
  13.480         79.17	     9.747
  13.500         78.33	     9.695
  13.520         66.67	     8.944
  13.540         65.83	     8.888
  13.560         64.17	     8.775
  13.580         59.17	     8.426
  13.600         61.67	     8.602
  13.620         57.50	     8.307
  13.640         60.00	     8.485
  13.660         54.17	     8.062
  13.680         58.33	     8.367
  13.700         53.33	     8.000
  13.720         66.67	     8.944
  13.740         77.50	     9.644
  13.760         65.00	     8.832
  13.780         59.17	     8.426
  13.800         63.33	     8.718
  13.820         57.50	     8.307
  13.840         70.83	     9.220
  13.860         60.00	     8.485
  13.880         58.33	     8.367
  13.900         73.33	     9.381
  13.920         79.17	     9.747
  13.940         93.33	    10.583
  13.960        110.00	    11.489
  13.980        110.83	    11.533
  14.000        117.50	    11.874
  14.020         87.50	    10.247
  14.040         81.67	     9.899
  14.060         73.33	     9.381
  14.080         70.83	     9.220
  14.100         70.83	     9.220
  14.120         60.83	     8.544
  14.140         69.17	     9.110
  14.160         70.83	     9.220
  14.180         50.83	     7.810
  14.200         55.83	     8.185
  14.220         63.33	     8.718
  14.240         63.33	     8.718
  14.260         54.17	     8.062
  14.280         55.00	     8.124
  14.300         58.33	     8.367
  14.320         50.00	     7.746
  14.340         65.00	     8.832
  14.360         55.83	     8.185
  14.380         47.50	     7.550
  14.400         48.33	     7.616
