
Filename:
	C:\Program Files\Thermo Electron\WinXRD\Datafiles\F_HERMAN\GEO\GG_14_SFT.raw

File Created:
	October 13, 2020 - 01:36 PM

Specimen Id:
	GG_14_SFT

Specimen Name:
	

Specimen Description:
	

Comment:
Scan Type: 2Theta Scan
Start Angle: 3 deg.
Stop Angle: 65 deg.
Num Points: 3101
Step Size: 0.02 deg.
Scan Rate: 1.000000
Scan Mode: Continuous
Wavelength: 1.540562
\Kalpha1: 1.540562	\Kalpha2: 1.544390	\Kbeta: 1.392218

Optics:
		Detector:
			 Type: Fixed Slits
		Tube: 
			 Type: Fixed Slits


Datas:
 Pos [deg]       Rate [CPS]      ESD [-]

Range 1 ---> Iteration 1
   3.000        326.67	    19.799
   3.020        324.17	    19.723
   3.040        315.83	    19.468
   3.060        337.50	    20.125
   3.080        325.00	    19.748
   3.100        320.83	    19.621
   3.120        315.00	    19.442
   3.140        310.83	    19.313
   3.160        289.17	    18.628
   3.180        319.17	    19.570
   3.200        330.83	    19.925
   3.220        303.33	    19.079
   3.240        314.17	    19.416
   3.260        320.00	    19.596
   3.280        282.50	    18.412
   3.300        293.33	    18.762
   3.320        331.67	    19.950
   3.340        282.50	    18.412
   3.360        315.00	    19.442
   3.380        273.33	    18.111
   3.400        282.50	    18.412
   3.420        301.67	    19.026
   3.440        297.50	    18.894
   3.460        284.17	    18.466
   3.480        265.83	    17.861
   3.500        273.33	    18.111
   3.520        260.83	    17.692
   3.540        279.17	    18.303
   3.560        250.83	    17.349
   3.580        270.00	    18.000
   3.600        272.50	    18.083
   3.620        295.00	    18.815
   3.640        260.00	    17.664
   3.660        263.33	    17.776
   3.680        246.67	    17.205
   3.700        259.17	    17.635
   3.720        247.50	    17.234
   3.740        274.17	    18.138
   3.760        230.00	    16.613
   3.780        236.67	    16.852
   3.800        269.17	    17.972
   3.820        240.83	    17.000
   3.840        230.83	    16.643
   3.860        260.83	    17.692
   3.880        247.50	    17.234
   3.900        245.83	    17.176
   3.920        234.17	    16.763
   3.940        221.67	    16.310
   3.960        233.33	    16.733
   3.980        234.17	    16.763
   4.000        246.67	    17.205
   4.020        229.17	    16.583
   4.040        233.33	    16.733
   4.060        232.50	    16.703
   4.080        245.00	    17.146
   4.100        220.83	    16.279
   4.120        218.33	    16.186
   4.140        239.17	    16.941
   4.160        224.17	    16.401
   4.180        228.33	    16.553
   4.200        214.17	    16.031
   4.220        222.50	    16.340
   4.240        216.67	    16.125
   4.260        256.67	    17.550
   4.280        219.17	    16.217
   4.300        192.50	    15.199
   4.320        193.33	    15.232
   4.340        185.83	    14.933
   4.360        194.17	    15.264
   4.380        210.83	    15.906
   4.400        196.67	    15.362
   4.420        225.00	    16.432
   4.440        209.17	    15.843
   4.460        222.50	    16.340
   4.480        215.83	    16.093
   4.500        198.33	    15.427
   4.520        203.33	    15.620
   4.540        191.67	    15.166
   4.560        187.50	    15.000
   4.580        216.67	    16.125
   4.600        175.83	    14.526
   4.620        196.67	    15.362
   4.640        213.33	    16.000
   4.660        217.50	    16.155
   4.680        168.33	    14.213
   4.700        185.83	    14.933
   4.720        170.00	    14.283
   4.740        200.83	    15.524
   4.760        176.67	    14.560
   4.780        200.83	    15.524
   4.800        185.83	    14.933
   4.820        175.83	    14.526
   4.840        185.83	    14.933
   4.860        183.33	    14.832
   4.880        184.17	    14.866
   4.900        188.33	    15.033
   4.920        184.17	    14.866
   4.940        184.17	    14.866
   4.960        180.00	    14.697
   4.980        165.00	    14.071
   5.000        170.00	    14.283
   5.020        174.17	    14.457
   5.040        172.50	    14.387
   5.060        178.33	    14.629
   5.080        192.50	    15.199
   5.100        165.00	    14.071
   5.120        179.17	    14.663
   5.140        168.33	    14.213
   5.160        163.33	    14.000
   5.180        158.33	    13.784
   5.200        151.67	    13.491
   5.220        160.00	    13.856
   5.240        165.00	    14.071
   5.260        163.33	    14.000
   5.280        168.33	    14.213
   5.300        164.17	    14.036
   5.320        180.00	    14.697
   5.340        175.83	    14.526
   5.360        172.50	    14.387
   5.380        154.17	    13.601
   5.400        140.83	    13.000
   5.420        171.67	    14.353
   5.440        153.33	    13.565
   5.460        145.83	    13.229
   5.480        190.00	    15.100
   5.500        159.17	    13.820
   5.520        161.67	    13.928
   5.540        159.17	    13.820
   5.560        150.00	    13.416
   5.580        156.67	    13.711
   5.600        135.00	    12.728
   5.620        152.50	    13.528
   5.640        150.00	    13.416
   5.660        143.33	    13.115
   5.680        160.00	    13.856
   5.700        153.33	    13.565
   5.720        151.67	    13.491
   5.740        160.83	    13.892
   5.760        125.00	    12.247
   5.780        144.17	    13.153
   5.800        148.33	    13.342
   5.820        130.00	    12.490
   5.840        137.50	    12.845
   5.860        146.67	    13.266
   5.880        161.67	    13.928
   5.900        154.17	    13.601
   5.920        135.00	    12.728
   5.940        137.50	    12.845
   5.960        160.83	    13.892
   5.980        169.17	    14.248
   6.000        160.83	    13.892
   6.020        168.33	    14.213
   6.040        173.33	    14.422
   6.060        154.17	    13.601
   6.080        145.83	    13.229
   6.100        161.67	    13.928
   6.120        163.33	    14.000
   6.140        146.67	    13.266
   6.160        170.83	    14.318
   6.180        173.33	    14.422
   6.200        202.50	    15.588
   6.220        205.00	    15.684
   6.240        194.17	    15.264
   6.260        189.17	    15.067
   6.280        195.00	    15.297
   6.300        182.50	    14.799
   6.320        158.33	    13.784
   6.340        163.33	    14.000
   6.360        145.00	    13.191
   6.380        162.50	    13.964
   6.400        169.17	    14.248
   6.420        162.50	    13.964
   6.440        158.33	    13.784
   6.460        169.17	    14.248
   6.480        170.00	    14.283
   6.500        152.50	    13.528
   6.520        140.00	    12.961
   6.540        130.00	    12.490
   6.560        129.17	    12.450
   6.580        130.00	    12.490
   6.600        138.33	    12.884
   6.620        135.00	    12.728
   6.640        138.33	    12.884
   6.660        137.50	    12.845
   6.680        147.50	    13.304
   6.700        112.50	    11.619
   6.720        106.67	    11.314
   6.740        145.83	    13.229
   6.760        120.00	    12.000
   6.780        115.00	    11.747
   6.800        124.17	    12.207
   6.820        119.17	    11.958
   6.840        132.50	    12.610
   6.860        117.50	    11.874
   6.880        127.50	    12.369
   6.900        127.50	    12.369
   6.920        101.67	    11.045
   6.940        130.83	    12.530
   6.960        123.33	    12.166
   6.980        109.17	    11.446
   7.000        124.17	    12.207
   7.020        141.67	    13.038
   7.040        104.17	    11.180
   7.060        105.83	    11.269
   7.080         90.00	    10.392
   7.100        115.00	    11.747
   7.120        125.83	    12.288
   7.140        119.17	    11.958
   7.160        130.83	    12.530
   7.180        128.33	    12.410
   7.200        112.50	    11.619
   7.220        103.33	    11.136
   7.240        125.00	    12.247
   7.260        115.00	    11.747
   7.280         99.17	    10.909
   7.300        105.83	    11.269
   7.320        110.00	    11.489
   7.340         97.50	    10.817
   7.360        112.50	    11.619
   7.380        110.00	    11.489
   7.400        119.17	    11.958
   7.420         95.83	    10.724
   7.440        104.17	    11.180
   7.460         98.33	    10.863
   7.480        109.17	    11.446
   7.500         93.33	    10.583
   7.520        107.50	    11.358
   7.540         89.17	    10.344
   7.560        102.50	    11.091
   7.580        106.67	    11.314
   7.600        100.83	    11.000
   7.620         94.17	    10.630
   7.640         97.50	    10.817
   7.660         89.17	    10.344
   7.680         97.50	    10.817
   7.700         85.00	    10.100
   7.720        107.50	    11.358
   7.740         95.83	    10.724
   7.760         99.17	    10.909
   7.780         90.00	    10.392
   7.800         94.17	    10.630
   7.820         87.50	    10.247
   7.840        109.17	    11.446
   7.860         95.00	    10.677
   7.880         80.00	     9.798
   7.900         94.17	    10.630
   7.920        103.33	    11.136
   7.940         95.00	    10.677
   7.960         91.67	    10.488
   7.980         93.33	    10.583
   8.000         85.00	    10.100
   8.020         83.33	    10.000
   8.040         95.00	    10.677
   8.060         85.83	    10.149
   8.080         94.17	    10.630
   8.100         90.83	    10.440
   8.120         94.17	    10.630
   8.140         80.83	     9.849
   8.160        109.17	    11.446
   8.180         83.33	    10.000
   8.200         83.33	    10.000
   8.220        105.00	    11.225
   8.240         80.83	     9.849
   8.260         96.67	    10.770
   8.280         94.17	    10.630
   8.300         90.83	    10.440
   8.320         92.50	    10.536
   8.340         91.67	    10.488
   8.360         84.17	    10.050
   8.380         83.33	    10.000
   8.400         73.33	     9.381
   8.420         86.67	    10.198
   8.440         90.00	    10.392
   8.460         84.17	    10.050
   8.480         78.33	     9.695
   8.500        116.67	    11.832
   8.520         79.17	     9.747
   8.540         86.67	    10.198
   8.560         79.17	     9.747
   8.580        100.83	    11.000
   8.600         87.50	    10.247
   8.620         94.17	    10.630
   8.640        100.00	    10.954
   8.660         91.67	    10.488
   8.680         84.17	    10.050
   8.700         89.17	    10.344
   8.720         87.50	    10.247
   8.740        115.00	    11.747
   8.760        104.17	    11.180
   8.780         85.00	    10.100
   8.800         79.17	     9.747
   8.820         98.33	    10.863
   8.840         96.67	    10.770
   8.860         92.50	    10.536
   8.880         99.17	    10.909
   8.900         97.50	    10.817
   8.920        106.67	    11.314
   8.940        107.50	    11.358
   8.960        117.50	    11.874
   8.980        135.00	    12.728
   9.000        152.50	    13.528
   9.020        129.17	    12.450
   9.040        116.67	    11.832
   9.060        122.50	    12.124
   9.080        153.33	    13.565
   9.100        185.83	    14.933
   9.120        155.83	    13.675
   9.140        168.33	    14.213
   9.160        140.00	    12.961
   9.180        118.33	    11.916
   9.200        106.67	    11.314
   9.220         72.50	     9.327
   9.240         85.00	    10.100
   9.260         82.50	     9.950
   9.280         82.50	     9.950
   9.300         90.00	    10.392
   9.320         84.17	    10.050
   9.340         71.67	     9.274
   9.360         74.17	     9.434
   9.380         96.67	    10.770
   9.400         81.67	     9.899
   9.420         72.50	     9.327
   9.440         84.17	    10.050
   9.460         63.33	     8.718
   9.480         65.00	     8.832
   9.500         89.17	    10.344
   9.520         70.00	     9.165
   9.540         75.00	     9.487
   9.560         86.67	    10.198
   9.580         65.83	     8.888
   9.600         67.50	     9.000
   9.620         82.50	     9.950
   9.640         71.67	     9.274
   9.660         83.33	    10.000
   9.680         77.50	     9.644
   9.700         80.83	     9.849
   9.720         80.00	     9.798
   9.740         81.67	     9.899
   9.760         65.00	     8.832
   9.780         65.83	     8.888
   9.800         58.33	     8.367
   9.820         74.17	     9.434
   9.840         58.33	     8.367
   9.860         62.50	     8.660
   9.880         70.00	     9.165
   9.900         68.33	     9.055
   9.920         75.83	     9.539
   9.940         65.83	     8.888
   9.960         74.17	     9.434
   9.980         62.50	     8.660
  10.000         73.33	     9.381
  10.020         71.67	     9.274
  10.040         80.00	     9.798
  10.060         71.67	     9.274
  10.080         83.33	    10.000
  10.100         55.00	     8.124
  10.120         66.67	     8.944
  10.140         63.33	     8.718
  10.160         65.83	     8.888
  10.180         65.83	     8.888
  10.200         67.50	     9.000
  10.220         61.67	     8.602
  10.240         72.50	     9.327
  10.260         77.50	     9.644
  10.280         55.00	     8.124
  10.300         55.00	     8.124
  10.320         55.83	     8.185
  10.340         47.50	     7.550
  10.360         65.00	     8.832
  10.380         51.67	     7.874
  10.400         70.83	     9.220
  10.420         59.17	     8.426
  10.440         60.83	     8.544
  10.460         70.83	     9.220
  10.480         61.67	     8.602
  10.500         69.17	     9.110
  10.520         75.83	     9.539
  10.540         55.00	     8.124
  10.560         70.00	     9.165
  10.580         60.83	     8.544
  10.600         77.50	     9.644
  10.620         84.17	    10.050
  10.640         85.00	    10.100
  10.660         74.17	     9.434
  10.680         65.00	     8.832
  10.700         86.67	    10.198
  10.720         85.83	    10.149
  10.740        109.17	    11.446
  10.760         95.00	    10.677
  10.780         72.50	     9.327
  10.800         77.50	     9.644
  10.820         65.00	     8.832
  10.840         65.83	     8.888
  10.860         77.50	     9.644
  10.880         59.17	     8.426
  10.900         63.33	     8.718
  10.920         52.50	     7.937
  10.940         53.33	     8.000
  10.960         50.00	     7.746
  10.980         70.00	     9.165
  11.000         61.67	     8.602
  11.020         44.17	     7.280
  11.040         46.67	     7.483
  11.060         68.33	     9.055
  11.080         50.83	     7.810
  11.100         56.67	     8.246
  11.120         53.33	     8.000
  11.140         48.33	     7.616
  11.160         55.83	     8.185
  11.180         61.67	     8.602
  11.200         48.33	     7.616
  11.220         50.83	     7.810
  11.240         62.50	     8.660
  11.260         56.67	     8.246
  11.280         62.50	     8.660
  11.300         54.17	     8.062
  11.320         60.83	     8.544
  11.340         53.33	     8.000
  11.360         60.00	     8.485
  11.380         61.67	     8.602
  11.400         60.00	     8.485
  11.420         49.17	     7.681
  11.440         54.17	     8.062
  11.460         55.00	     8.124
  11.480         56.67	     8.246
  11.500         56.67	     8.246
  11.520         45.00	     7.348
  11.540         64.17	     8.775
  11.560         56.67	     8.246
  11.580         60.83	     8.544
  11.600         51.67	     7.874
  11.620         55.83	     8.185
  11.640         66.67	     8.944
  11.660         57.50	     8.307
  11.680         57.50	     8.307
  11.700         42.50	     7.141
  11.720         60.00	     8.485
  11.740         60.00	     8.485
  11.760         63.33	     8.718
  11.780         57.50	     8.307
  11.800         65.83	     8.888
  11.820         49.17	     7.681
  11.840         54.17	     8.062
  11.860         44.17	     7.280
  11.880         63.33	     8.718
  11.900         60.00	     8.485
  11.920         55.83	     8.185
  11.940         51.67	     7.874
  11.960         63.33	     8.718
  11.980         50.83	     7.810
  12.000         65.83	     8.888
  12.020         60.00	     8.485
  12.040         45.00	     7.348
  12.060         62.50	     8.660
  12.080         55.00	     8.124
  12.100         67.50	     9.000
  12.120         45.83	     7.416
  12.140         61.67	     8.602
  12.160         65.83	     8.888
  12.180         61.67	     8.602
  12.200         82.50	     9.950
  12.220         80.83	     9.849
  12.240         81.67	     9.899
  12.260        102.50	    11.091
  12.280        122.50	    12.124
  12.300        110.83	    11.533
  12.320        119.17	    11.958
  12.340        117.50	    11.874
  12.360        140.83	    13.000
  12.380        155.83	    13.675
  12.400        226.67	    16.492
  12.420        223.33	    16.371
  12.440        208.33	    15.811
  12.460        186.67	    14.967
  12.480        133.33	    12.649
  12.500        125.00	    12.247
  12.520        115.83	    11.790
  12.540        117.50	    11.874
  12.560        125.83	    12.288
  12.580        124.17	    12.207
  12.600        120.83	    12.042
  12.620        116.67	    11.832
  12.640        128.33	    12.410
  12.660        119.17	    11.958
  12.680        140.83	    13.000
  12.700        149.17	    13.379
  12.720        165.83	    14.107
  12.740        152.50	    13.528
  12.760        130.83	    12.530
  12.780        112.50	    11.619
  12.800         92.50	    10.536
  12.820         93.33	    10.583
  12.840         60.83	     8.544
  12.860         49.17	     7.681
  12.880         50.00	     7.746
  12.900         44.17	     7.280
  12.920         51.67	     7.874
  12.940         50.83	     7.810
  12.960         49.17	     7.681
  12.980         50.00	     7.746
  13.000         47.50	     7.550
  13.020         50.83	     7.810
  13.040         56.67	     8.246
  13.060         55.00	     8.124
  13.080         57.50	     8.307
  13.100         56.67	     8.246
  13.120         45.00	     7.348
  13.140         45.83	     7.416
  13.160         45.83	     7.416
  13.180         52.50	     7.937
  13.200         46.67	     7.483
  13.220         50.83	     7.810
  13.240         41.67	     7.071
  13.260         50.00	     7.746
  13.280         40.00	     6.928
  13.300         43.33	     7.211
  13.320         48.33	     7.616
  13.340         50.83	     7.810
  13.360         40.83	     7.000
  13.380         47.50	     7.550
  13.400         49.17	     7.681
  13.420         51.67	     7.874
  13.440         52.50	     7.937
  13.460         39.17	     6.856
  13.480         37.50	     6.708
  13.500         47.50	     7.550
  13.520         44.17	     7.280
  13.540         46.67	     7.483
  13.560         51.67	     7.874
  13.580         35.83	     6.557
  13.600         50.83	     7.810
  13.620         55.83	     8.185
  13.640         56.67	     8.246
  13.660         55.83	     8.185
  13.680         45.00	     7.348
  13.700         49.17	     7.681
  13.720         55.00	     8.124
  13.740         52.50	     7.937
  13.760         51.67	     7.874
  13.780         55.83	     8.185
  13.800         56.67	     8.246
  13.820         58.33	     8.367
  13.840         50.83	     7.810
  13.860         47.50	     7.550
  13.880         54.17	     8.062
  13.900         35.00	     6.481
  13.920         62.50	     8.660
  13.940         62.50	     8.660
  13.960         52.50	     7.937
  13.980         48.33	     7.616
  14.000         49.17	     7.681
  14.020         56.67	     8.246
  14.040         78.33	     9.695
  14.060         71.67	     9.274
  14.080         80.00	     9.798
  14.100        116.67	    11.832
  14.120        118.33	    11.916
  14.140        122.50	    12.124
  14.160         85.83	    10.149
  14.180         67.50	     9.000
  14.200         52.50	     7.937
  14.220         50.00	     7.746
  14.240         37.50	     6.708
  14.260         45.00	     7.348
  14.280         36.67	     6.633
  14.300         41.67	     7.071
  14.320         44.17	     7.280
  14.340         38.33	     6.782
  14.360         37.50	     6.708
  14.380         39.17	     6.856
  14.400         40.00	     6.928
