
Filename:
	C:\Program Files\Thermo Electron\WinXRD\Datafiles\F_HERMAN\GEO\GG_19_SFT.raw

File Created:
	October 14, 2020 - 03:08 AM

Specimen Id:
	GG_19_SFT

Specimen Name:
	

Specimen Description:
	

Comment:
Scan Type: 2Theta Scan
Start Angle: 3 deg.
Stop Angle: 65 deg.
Num Points: 3101
Step Size: 0.02 deg.
Scan Rate: 1.000000
Scan Mode: Continuous
Wavelength: 1.540562
\Kalpha1: 1.540562	\Kalpha2: 1.544390	\Kbeta: 1.392218

Optics:
		Detector:
			 Type: Fixed Slits
		Tube: 
			 Type: Fixed Slits


Datas:
 Pos [deg]       Rate [CPS]      ESD [-]

Range 1 ---> Iteration 1
   3.000        345.83	    20.372
   3.020        343.33	    20.298
   3.040        357.50	    20.712
   3.060        329.17	    19.875
   3.080        336.67	    20.100
   3.100        328.33	    19.849
   3.120        305.83	    19.157
   3.140        336.67	    20.100
   3.160        314.17	    19.416
   3.180        355.83	    20.664
   3.200        294.17	    18.788
   3.220        305.00	    19.131
   3.240        286.67	    18.547
   3.260        307.50	    19.209
   3.280        325.00	    19.748
   3.300        313.33	    19.391
   3.320        303.33	    19.079
   3.340        322.50	    19.672
   3.360        283.33	    18.439
   3.380        327.50	    19.824
   3.400        270.00	    18.000
   3.420        290.83	    18.682
   3.440        295.00	    18.815
   3.460        286.67	    18.547
   3.480        291.67	    18.708
   3.500        312.50	    19.365
   3.520        265.00	    17.833
   3.540        310.83	    19.313
   3.560        276.67	    18.221
   3.580        285.00	    18.493
   3.600        304.17	    19.105
   3.620        279.17	    18.303
   3.640        273.33	    18.111
   3.660        264.17	    17.804
   3.680        246.67	    17.205
   3.700        299.17	    18.947
   3.720        261.67	    17.720
   3.740        241.67	    17.029
   3.760        275.00	    18.166
   3.780        244.17	    17.117
   3.800        275.00	    18.166
   3.820        269.17	    17.972
   3.840        256.67	    17.550
   3.860        255.00	    17.493
   3.880        282.50	    18.412
   3.900        251.67	    17.378
   3.920        275.83	    18.193
   3.940        235.83	    16.823
   3.960        259.17	    17.635
   3.980        288.33	    18.601
   4.000        259.17	    17.635
   4.020        233.33	    16.733
   4.040        245.83	    17.176
   4.060        250.83	    17.349
   4.080        257.50	    17.578
   4.100        244.17	    17.117
   4.120        255.00	    17.493
   4.140        228.33	    16.553
   4.160        243.33	    17.088
   4.180        231.67	    16.673
   4.200        230.00	    16.613
   4.220        246.67	    17.205
   4.240        232.50	    16.703
   4.260        210.83	    15.906
   4.280        228.33	    16.553
   4.300        245.00	    17.146
   4.320        229.17	    16.583
   4.340        217.50	    16.155
   4.360        224.17	    16.401
   4.380        213.33	    16.000
   4.400        210.83	    15.906
   4.420        212.50	    15.969
   4.440        217.50	    16.155
   4.460        223.33	    16.371
   4.480        225.83	    16.462
   4.500        228.33	    16.553
   4.520        205.00	    15.684
   4.540        192.50	    15.199
   4.560        194.17	    15.264
   4.580        215.83	    16.093
   4.600        220.00	    16.248
   4.620        192.50	    15.199
   4.640        190.83	    15.133
   4.660        201.67	    15.556
   4.680        200.00	    15.492
   4.700        181.67	    14.765
   4.720        192.50	    15.199
   4.740        222.50	    16.340
   4.760        220.83	    16.279
   4.780        179.17	    14.663
   4.800        195.00	    15.297
   4.820        214.17	    16.031
   4.840        190.83	    15.133
   4.860        176.67	    14.560
   4.880        195.00	    15.297
   4.900        193.33	    15.232
   4.920        204.17	    15.652
   4.940        195.83	    15.330
   4.960        168.33	    14.213
   4.980        183.33	    14.832
   5.000        192.50	    15.199
   5.020        171.67	    14.353
   5.040        178.33	    14.629
   5.060        174.17	    14.457
   5.080        171.67	    14.353
   5.100        184.17	    14.866
   5.120        185.00	    14.900
   5.140        190.83	    15.133
   5.160        178.33	    14.629
   5.180        179.17	    14.663
   5.200        172.50	    14.387
   5.220        175.83	    14.526
   5.240        178.33	    14.629
   5.260        180.83	    14.731
   5.280        177.50	    14.595
   5.300        181.67	    14.765
   5.320        170.00	    14.283
   5.340        157.50	    13.748
   5.360        190.00	    15.100
   5.380        184.17	    14.866
   5.400        155.83	    13.675
   5.420        154.17	    13.601
   5.440        172.50	    14.387
   5.460        158.33	    13.784
   5.480        170.00	    14.283
   5.500        172.50	    14.387
   5.520        169.17	    14.248
   5.540        167.50	    14.177
   5.560        165.83	    14.107
   5.580        180.00	    14.697
   5.600        173.33	    14.422
   5.620        170.00	    14.283
   5.640        184.17	    14.866
   5.660        167.50	    14.177
   5.680        157.50	    13.748
   5.700        156.67	    13.711
   5.720        154.17	    13.601
   5.740        168.33	    14.213
   5.760        173.33	    14.422
   5.780        150.83	    13.454
   5.800        194.17	    15.264
   5.820        188.33	    15.033
   5.840        162.50	    13.964
   5.860        170.83	    14.318
   5.880        179.17	    14.663
   5.900        193.33	    15.232
   5.920        168.33	    14.213
   5.940        178.33	    14.629
   5.960        177.50	    14.595
   5.980        192.50	    15.199
   6.000        191.67	    15.166
   6.020        215.83	    16.093
   6.040        189.17	    15.067
   6.060        192.50	    15.199
   6.080        242.50	    17.059
   6.100        218.33	    16.186
   6.120        207.50	    15.780
   6.140        207.50	    15.780
   6.160        195.83	    15.330
   6.180        192.50	    15.199
   6.200        211.67	    15.937
   6.220        192.50	    15.199
   6.240        210.83	    15.906
   6.260        210.83	    15.906
   6.280        223.33	    16.371
   6.300        224.17	    16.401
   6.320        216.67	    16.125
   6.340        207.50	    15.780
   6.360        212.50	    15.969
   6.380        205.00	    15.684
   6.400        193.33	    15.232
   6.420        185.00	    14.900
   6.440        163.33	    14.000
   6.460        165.00	    14.071
   6.480        155.83	    13.675
   6.500        138.33	    12.884
   6.520        132.50	    12.610
   6.540        141.67	    13.038
   6.560        150.83	    13.454
   6.580        128.33	    12.410
   6.600        144.17	    13.153
   6.620        153.33	    13.565
   6.640        143.33	    13.115
   6.660        114.17	    11.705
   6.680        153.33	    13.565
   6.700        149.17	    13.379
   6.720        129.17	    12.450
   6.740        140.83	    13.000
   6.760        134.17	    12.689
   6.780        170.00	    14.283
   6.800        117.50	    11.874
   6.820        131.67	    12.570
   6.840        148.33	    13.342
   6.860        109.17	    11.446
   6.880        119.17	    11.958
   6.900        128.33	    12.410
   6.920        126.67	    12.329
   6.940        140.00	    12.961
   6.960        135.00	    12.728
   6.980        130.00	    12.490
   7.000        145.00	    13.191
   7.020        104.17	    11.180
   7.040        116.67	    11.832
   7.060        116.67	    11.832
   7.080        103.33	    11.136
   7.100        135.83	    12.767
   7.120        124.17	    12.207
   7.140        134.17	    12.689
   7.160        113.33	    11.662
   7.180        128.33	    12.410
   7.200        121.67	    12.083
   7.220        141.67	    13.038
   7.240        126.67	    12.329
   7.260        128.33	    12.410
   7.280        140.00	    12.961
   7.300        125.83	    12.288
   7.320        121.67	    12.083
   7.340        123.33	    12.166
   7.360        146.67	    13.266
   7.380        133.33	    12.649
   7.400        125.00	    12.247
   7.420        116.67	    11.832
   7.440        120.83	    12.042
   7.460        106.67	    11.314
   7.480        105.83	    11.269
   7.500        121.67	    12.083
   7.520        110.83	    11.533
   7.540        128.33	    12.410
   7.560        116.67	    11.832
   7.580        114.17	    11.705
   7.600        109.17	    11.446
   7.620        105.00	    11.225
   7.640        135.83	    12.767
   7.660        121.67	    12.083
   7.680        126.67	    12.329
   7.700        109.17	    11.446
   7.720        125.83	    12.288
   7.740        113.33	    11.662
   7.760        112.50	    11.619
   7.780        131.67	    12.570
   7.800        117.50	    11.874
   7.820        116.67	    11.832
   7.840         96.67	    10.770
   7.860         95.83	    10.724
   7.880        106.67	    11.314
   7.900        108.33	    11.402
   7.920        134.17	    12.689
   7.940        125.00	    12.247
   7.960        105.83	    11.269
   7.980        100.00	    10.954
   8.000        134.17	    12.689
   8.020        110.00	    11.489
   8.040        104.17	    11.180
   8.060        125.83	    12.288
   8.080        135.83	    12.767
   8.100        120.00	    12.000
   8.120        129.17	    12.450
   8.140         95.83	    10.724
   8.160        121.67	    12.083
   8.180        115.83	    11.790
   8.200        130.00	    12.490
   8.220        117.50	    11.874
   8.240        119.17	    11.958
   8.260        125.83	    12.288
   8.280        127.50	    12.369
   8.300        116.67	    11.832
   8.320        135.00	    12.728
   8.340        125.83	    12.288
   8.360        126.67	    12.329
   8.380         99.17	    10.909
   8.400        145.83	    13.229
   8.420        125.00	    12.247
   8.440        140.00	    12.961
   8.460        130.00	    12.490
   8.480        108.33	    11.402
   8.500        145.83	    13.229
   8.520        135.83	    12.767
   8.540        136.67	    12.806
   8.560        166.67	    14.142
   8.580        153.33	    13.565
   8.600        144.17	    13.153
   8.620        146.67	    13.266
   8.640        168.33	    14.213
   8.660        162.50	    13.964
   8.680        162.50	    13.964
   8.700        182.50	    14.799
   8.720        194.17	    15.264
   8.740        167.50	    14.177
   8.760        212.50	    15.969
   8.780        233.33	    16.733
   8.800        250.83	    17.349
   8.820        227.50	    16.523
   8.840        264.17	    17.804
   8.860        265.83	    17.861
   8.880        303.33	    19.079
   8.900        340.83	    20.224
   8.920        415.83	    22.338
   8.940        455.00	    23.367
   8.960        521.67	    25.020
   8.980        522.50	    25.040
   9.000        515.83	    24.880
   9.020        466.67	    23.664
   9.040        355.83	    20.664
   9.060        274.17	    18.138
   9.080        205.83	    15.716
   9.100        170.00	    14.283
   9.120        170.83	    14.318
   9.140        140.83	    13.000
   9.160        135.00	    12.728
   9.180        124.17	    12.207
   9.200        113.33	    11.662
   9.220        123.33	    12.166
   9.240        131.67	    12.570
   9.260        119.17	    11.958
   9.280        115.00	    11.747
   9.300        127.50	    12.369
   9.320        102.50	    11.091
   9.340         93.33	    10.583
   9.360         90.00	    10.392
   9.380         98.33	    10.863
   9.400         85.00	    10.100
   9.420         97.50	    10.817
   9.440        100.83	    11.000
   9.460        100.83	    11.000
   9.480        115.83	    11.790
   9.500        120.00	    12.000
   9.520        125.83	    12.288
   9.540        116.67	    11.832
   9.560        112.50	    11.619
   9.580        104.17	    11.180
   9.600        108.33	    11.402
   9.620        108.33	    11.402
   9.640         95.00	    10.677
   9.660         98.33	    10.863
   9.680         77.50	     9.644
   9.700         86.67	    10.198
   9.720         78.33	     9.695
   9.740         92.50	    10.536
   9.760         79.17	     9.747
   9.780         98.33	    10.863
   9.800         85.83	    10.149
   9.820         89.17	    10.344
   9.840         97.50	    10.817
   9.860         80.00	     9.798
   9.880         95.00	    10.677
   9.900         88.33	    10.296
   9.920        100.00	    10.954
   9.940         91.67	    10.488
   9.960         92.50	    10.536
   9.980         80.00	     9.798
  10.000         85.00	    10.100
  10.020         70.00	     9.165
  10.040         82.50	     9.950
  10.060         80.83	     9.849
  10.080         75.83	     9.539
  10.100         80.00	     9.798
  10.120         94.17	    10.630
  10.140         84.17	    10.050
  10.160         65.83	     8.888
  10.180         85.83	    10.149
  10.200         95.00	    10.677
  10.220         85.83	    10.149
  10.240         75.00	     9.487
  10.260         77.50	     9.644
  10.280         80.83	     9.849
  10.300         79.17	     9.747
  10.320         85.83	    10.149
  10.340         60.00	     8.485
  10.360         60.83	     8.544
  10.380         78.33	     9.695
  10.400         89.17	    10.344
  10.420         95.83	    10.724
  10.440         67.50	     9.000
  10.460         75.83	     9.539
  10.480         78.33	     9.695
  10.500         70.83	     9.220
  10.520         89.17	    10.344
  10.540         95.83	    10.724
  10.560        100.83	    11.000
  10.580        125.83	    12.288
  10.600        120.00	    12.000
  10.620        142.50	    13.077
  10.640        140.83	    13.000
  10.660        150.83	    13.454
  10.680        118.33	    11.916
  10.700        130.00	    12.490
  10.720        146.67	    13.266
  10.740        150.83	    13.454
  10.760        126.67	    12.329
  10.780        107.50	    11.358
  10.800         78.33	     9.695
  10.820         66.67	     8.944
  10.840         73.33	     9.381
  10.860         71.67	     9.274
  10.880         74.17	     9.434
  10.900         58.33	     8.367
  10.920         66.67	     8.944
  10.940         70.83	     9.220
  10.960         87.50	    10.247
  10.980         68.33	     9.055
  11.000         64.17	     8.775
  11.020         69.17	     9.110
  11.040         78.33	     9.695
  11.060         64.17	     8.775
  11.080         82.50	     9.950
  11.100         56.67	     8.246
  11.120         84.17	    10.050
  11.140         64.17	     8.775
  11.160         64.17	     8.775
  11.180         80.00	     9.798
  11.200         60.83	     8.544
  11.220         83.33	    10.000
  11.240         59.17	     8.426
  11.260         70.83	     9.220
  11.280         76.67	     9.592
  11.300         66.67	     8.944
  11.320         65.00	     8.832
  11.340         65.00	     8.832
  11.360         75.00	     9.487
  11.380         70.83	     9.220
  11.400         59.17	     8.426
  11.420         75.00	     9.487
  11.440         68.33	     9.055
  11.460         74.17	     9.434
  11.480         65.83	     8.888
  11.500         65.83	     8.888
  11.520         65.00	     8.832
  11.540         79.17	     9.747
  11.560         74.17	     9.434
  11.580         70.00	     9.165
  11.600         53.33	     8.000
  11.620         57.50	     8.307
  11.640         64.17	     8.775
  11.660         57.50	     8.307
  11.680         90.83	    10.440
  11.700         70.00	     9.165
  11.720         59.17	     8.426
  11.740         65.00	     8.832
  11.760         74.17	     9.434
  11.780         89.17	    10.344
  11.800         70.83	     9.220
  11.820         85.83	    10.149
  11.840         71.67	     9.274
  11.860         74.17	     9.434
  11.880         57.50	     8.307
  11.900         60.00	     8.485
  11.920         60.83	     8.544
  11.940         75.83	     9.539
  11.960         81.67	     9.899
  11.980         67.50	     9.000
  12.000         78.33	     9.695
  12.020         76.67	     9.592
  12.040         85.83	    10.149
  12.060         85.00	    10.100
  12.080         90.83	    10.440
  12.100         86.67	    10.198
  12.120        104.17	    11.180
  12.140        113.33	    11.662
  12.160        125.00	    12.247
  12.180        132.50	    12.610
  12.200        155.00	    13.638
  12.220        227.50	    16.523
  12.240        256.67	    17.550
  12.260        339.17	    20.174
  12.280        420.83	    22.472
  12.300        418.33	    22.405
  12.320        410.83	    22.204
  12.340        327.50	    19.824
  12.360        266.67	    17.889
  12.380        215.83	    16.093
  12.400        183.33	    14.832
  12.420        181.67	    14.765
  12.440        205.83	    15.716
  12.460        215.83	    16.093
  12.480        200.83	    15.524
  12.500        190.00	    15.100
  12.520        251.67	    17.378
  12.540        277.50	    18.248
  12.560        295.83	    18.841
  12.580        367.50	    21.000
  12.600        365.83	    20.952
  12.620        375.83	    21.237
  12.640        323.33	    19.698
  12.660        225.00	    16.432
  12.680        170.00	    14.283
  12.700        134.17	    12.689
  12.720        114.17	    11.705
  12.740        107.50	    11.358
  12.760         75.83	     9.539
  12.780         79.17	     9.747
  12.800         74.17	     9.434
  12.820         64.17	     8.775
  12.840         77.50	     9.644
  12.860         75.83	     9.539
  12.880         57.50	     8.307
  12.900         53.33	     8.000
  12.920         61.67	     8.602
  12.940         58.33	     8.367
  12.960         68.33	     9.055
  12.980         63.33	     8.718
  13.000         55.83	     8.185
  13.020         52.50	     7.937
  13.040         71.67	     9.274
  13.060         52.50	     7.937
  13.080         60.83	     8.544
  13.100         55.83	     8.185
  13.120         62.50	     8.660
  13.140         61.67	     8.602
  13.160         67.50	     9.000
  13.180         68.33	     9.055
  13.200         52.50	     7.937
  13.220         61.67	     8.602
  13.240         49.17	     7.681
  13.260         59.17	     8.426
  13.280         61.67	     8.602
  13.300         55.83	     8.185
  13.320         56.67	     8.246
  13.340         61.67	     8.602
  13.360         65.83	     8.888
  13.380         52.50	     7.937
  13.400         58.33	     8.367
  13.420         59.17	     8.426
  13.440         56.67	     8.246
  13.460         54.17	     8.062
  13.480         65.00	     8.832
  13.500         69.17	     9.110
  13.520         61.67	     8.602
  13.540         45.00	     7.348
  13.560         44.17	     7.280
  13.580         67.50	     9.000
  13.600         51.67	     7.874
  13.620         67.50	     9.000
  13.640         53.33	     8.000
  13.660         58.33	     8.367
  13.680         47.50	     7.550
  13.700         61.67	     8.602
  13.720         57.50	     8.307
  13.740         58.33	     8.367
  13.760         57.50	     8.307
  13.780         65.00	     8.832
  13.800         52.50	     7.937
  13.820         48.33	     7.616
  13.840         58.33	     8.367
  13.860         52.50	     7.937
  13.880         79.17	     9.747
  13.900         77.50	     9.644
  13.920         76.67	     9.592
  13.940         95.83	    10.724
  13.960         80.00	     9.798
  13.980         74.17	     9.434
  14.000         73.33	     9.381
  14.020         63.33	     8.718
  14.040         75.00	     9.487
  14.060         57.50	     8.307
  14.080         72.50	     9.327
  14.100         46.67	     7.483
  14.120         46.67	     7.483
  14.140         81.67	     9.899
  14.160         50.83	     7.810
  14.180         65.00	     8.832
  14.200         61.67	     8.602
  14.220         47.50	     7.550
  14.240         48.33	     7.616
  14.260         62.50	     8.660
  14.280         47.50	     7.550
  14.300         50.00	     7.746
  14.320         52.50	     7.937
  14.340         40.00	     6.928
  14.360         47.50	     7.550
  14.380         42.50	     7.141
  14.400         47.50	     7.550
