
Filename:
	C:\Program Files\Thermo Electron\WinXRD\Datafiles\F_HERMAN\GEO\GG_11_SFT.raw

File Created:
	October 12, 2020 - 08:33 PM

Specimen Id:
	GG_11_SFT

Specimen Name:
	

Specimen Description:
	

Comment:
Scan Type: 2Theta Scan
Start Angle: 3 deg.
Stop Angle: 65 deg.
Num Points: 3101
Step Size: 0.02 deg.
Scan Rate: 1.000000
Scan Mode: Continuous
Wavelength: 1.540562
\Kalpha1: 1.540562	\Kalpha2: 1.544390	\Kbeta: 1.392218

Optics:
		Detector:
			 Type: Fixed Slits
		Tube: 
			 Type: Fixed Slits


Datas:
 Pos [deg]       Rate [CPS]      ESD [-]

Range 1 ---> Iteration 1
   3.000        376.67	    21.260
   3.020        341.67	    20.248
   3.040        336.67	    20.100
   3.060        335.00	    20.050
   3.080        380.00	    21.354
   3.100        338.33	    20.149
   3.120        332.50	    19.975
   3.140        334.17	    20.025
   3.160        331.67	    19.950
   3.180        317.50	    19.519
   3.200        304.17	    19.105
   3.220        315.83	    19.468
   3.240        314.17	    19.416
   3.260        326.67	    19.799
   3.280        315.00	    19.442
   3.300        337.50	    20.125
   3.320        286.67	    18.547
   3.340        285.83	    18.520
   3.360        315.83	    19.468
   3.380        283.33	    18.439
   3.400        337.50	    20.125
   3.420        294.17	    18.788
   3.440        290.00	    18.655
   3.460        272.50	    18.083
   3.480        295.83	    18.841
   3.500        294.17	    18.788
   3.520        310.00	    19.287
   3.540        298.33	    18.921
   3.560        270.00	    18.000
   3.580        275.83	    18.193
   3.600        278.33	    18.276
   3.620        310.83	    19.313
   3.640        262.50	    17.748
   3.660        279.17	    18.303
   3.680        257.50	    17.578
   3.700        245.00	    17.146
   3.720        277.50	    18.248
   3.740        268.33	    17.944
   3.760        255.83	    17.521
   3.780        273.33	    18.111
   3.800        276.67	    18.221
   3.820        275.00	    18.166
   3.840        295.00	    18.815
   3.860        234.17	    16.763
   3.880        255.00	    17.493
   3.900        276.67	    18.221
   3.920        242.50	    17.059
   3.940        243.33	    17.088
   3.960        238.33	    16.912
   3.980        250.00	    17.321
   4.000        244.17	    17.117
   4.020        240.00	    16.971
   4.040        249.17	    17.292
   4.060        235.00	    16.793
   4.080        229.17	    16.583
   4.100        249.17	    17.292
   4.120        253.33	    17.436
   4.140        230.00	    16.613
   4.160        229.17	    16.583
   4.180        240.00	    16.971
   4.200        231.67	    16.673
   4.220        230.00	    16.613
   4.240        221.67	    16.310
   4.260        255.83	    17.521
   4.280        230.83	    16.643
   4.300        235.00	    16.793
   4.320        233.33	    16.733
   4.340        206.67	    15.748
   4.360        209.17	    15.843
   4.380        218.33	    16.186
   4.400        239.17	    16.941
   4.420        215.83	    16.093
   4.440        226.67	    16.492
   4.460        213.33	    16.000
   4.480        214.17	    16.031
   4.500        227.50	    16.523
   4.520        237.50	    16.882
   4.540        219.17	    16.217
   4.560        203.33	    15.620
   4.580        220.83	    16.279
   4.600        214.17	    16.031
   4.620        185.83	    14.933
   4.640        205.00	    15.684
   4.660        217.50	    16.155
   4.680        211.67	    15.937
   4.700        200.00	    15.492
   4.720        200.83	    15.524
   4.740        211.67	    15.937
   4.760        202.50	    15.588
   4.780        175.00	    14.491
   4.800        187.50	    15.000
   4.820        195.83	    15.330
   4.840        180.83	    14.731
   4.860        191.67	    15.166
   4.880        209.17	    15.843
   4.900        190.83	    15.133
   4.920        205.83	    15.716
   4.940        193.33	    15.232
   4.960        203.33	    15.620
   4.980        175.83	    14.526
   5.000        175.83	    14.526
   5.020        171.67	    14.353
   5.040        200.00	    15.492
   5.060        185.83	    14.933
   5.080        199.17	    15.460
   5.100        179.17	    14.663
   5.120        203.33	    15.620
   5.140        191.67	    15.166
   5.160        208.33	    15.811
   5.180        151.67	    13.491
   5.200        182.50	    14.799
   5.220        198.33	    15.427
   5.240        174.17	    14.457
   5.260        165.83	    14.107
   5.280        184.17	    14.866
   5.300        170.83	    14.318
   5.320        160.83	    13.892
   5.340        185.83	    14.933
   5.360        173.33	    14.422
   5.380        185.83	    14.933
   5.400        191.67	    15.166
   5.420        183.33	    14.832
   5.440        175.00	    14.491
   5.460        165.00	    14.071
   5.480        179.17	    14.663
   5.500        160.83	    13.892
   5.520        168.33	    14.213
   5.540        170.83	    14.318
   5.560        155.00	    13.638
   5.580        145.00	    13.191
   5.600        159.17	    13.820
   5.620        180.83	    14.731
   5.640        156.67	    13.711
   5.660        174.17	    14.457
   5.680        180.00	    14.697
   5.700        170.83	    14.318
   5.720        166.67	    14.142
   5.740        169.17	    14.248
   5.760        177.50	    14.595
   5.780        173.33	    14.422
   5.800        150.83	    13.454
   5.820        154.17	    13.601
   5.840        160.83	    13.892
   5.860        185.00	    14.900
   5.880        181.67	    14.765
   5.900        163.33	    14.000
   5.920        158.33	    13.784
   5.940        192.50	    15.199
   5.960        191.67	    15.166
   5.980        175.00	    14.491
   6.000        175.83	    14.526
   6.020        199.17	    15.460
   6.040        200.83	    15.524
   6.060        200.83	    15.524
   6.080        209.17	    15.843
   6.100        206.67	    15.748
   6.120        199.17	    15.460
   6.140        234.17	    16.763
   6.160        220.83	    16.279
   6.180        229.17	    16.583
   6.200        228.33	    16.553
   6.220        250.83	    17.349
   6.240        226.67	    16.492
   6.260        210.83	    15.906
   6.280        237.50	    16.882
   6.300        212.50	    15.969
   6.320        231.67	    16.673
   6.340        197.50	    15.395
   6.360        229.17	    16.583
   6.380        218.33	    16.186
   6.400        196.67	    15.362
   6.420        222.50	    16.340
   6.440        221.67	    16.310
   6.460        209.17	    15.843
   6.480        195.00	    15.297
   6.500        164.17	    14.036
   6.520        160.00	    13.856
   6.540        162.50	    13.964
   6.560        155.00	    13.638
   6.580        156.67	    13.711
   6.600        165.00	    14.071
   6.620        150.83	    13.454
   6.640        163.33	    14.000
   6.660        164.17	    14.036
   6.680        145.00	    13.191
   6.700        140.00	    12.961
   6.720        139.17	    12.923
   6.740        140.00	    12.961
   6.760        125.00	    12.247
   6.780        121.67	    12.083
   6.800        135.00	    12.728
   6.820        136.67	    12.806
   6.840        144.17	    13.153
   6.860        139.17	    12.923
   6.880        136.67	    12.806
   6.900        140.00	    12.961
   6.920        119.17	    11.958
   6.940        131.67	    12.570
   6.960        133.33	    12.649
   6.980        124.17	    12.207
   7.000        130.83	    12.530
   7.020        129.17	    12.450
   7.040        118.33	    11.916
   7.060        132.50	    12.610
   7.080        147.50	    13.304
   7.100        140.00	    12.961
   7.120        127.50	    12.369
   7.140        124.17	    12.207
   7.160        130.00	    12.490
   7.180        110.83	    11.533
   7.200        113.33	    11.662
   7.220        138.33	    12.884
   7.240        129.17	    12.450
   7.260        129.17	    12.450
   7.280        134.17	    12.689
   7.300        137.50	    12.845
   7.320        129.17	    12.450
   7.340        109.17	    11.446
   7.360        129.17	    12.450
   7.380        127.50	    12.369
   7.400        130.00	    12.490
   7.420        120.83	    12.042
   7.440        117.50	    11.874
   7.460        114.17	    11.705
   7.480        123.33	    12.166
   7.500        129.17	    12.450
   7.520        129.17	    12.450
   7.540        113.33	    11.662
   7.560        108.33	    11.402
   7.580        122.50	    12.124
   7.600        135.00	    12.728
   7.620        114.17	    11.705
   7.640        128.33	    12.410
   7.660        130.00	    12.490
   7.680        116.67	    11.832
   7.700        125.83	    12.288
   7.720        117.50	    11.874
   7.740        119.17	    11.958
   7.760        125.83	    12.288
   7.780        119.17	    11.958
   7.800        115.83	    11.790
   7.820        100.83	    11.000
   7.840        105.83	    11.269
   7.860        123.33	    12.166
   7.880        114.17	    11.705
   7.900        118.33	    11.916
   7.920        125.00	    12.247
   7.940        109.17	    11.446
   7.960        111.67	    11.576
   7.980        100.83	    11.000
   8.000        120.83	    12.042
   8.020        118.33	    11.916
   8.040        119.17	    11.958
   8.060        111.67	    11.576
   8.080        118.33	    11.916
   8.100        129.17	    12.450
   8.120        125.00	    12.247
   8.140        119.17	    11.958
   8.160        114.17	    11.705
   8.180        129.17	    12.450
   8.200        119.17	    11.958
   8.220        124.17	    12.207
   8.240        110.00	    11.489
   8.260        108.33	    11.402
   8.280        129.17	    12.450
   8.300        146.67	    13.266
   8.320        128.33	    12.410
   8.340        152.50	    13.528
   8.360        167.50	    14.177
   8.380        157.50	    13.748
   8.400        166.67	    14.142
   8.420        130.00	    12.490
   8.440        132.50	    12.610
   8.460        110.83	    11.533
   8.480        117.50	    11.874
   8.500         95.00	    10.677
   8.520        100.83	    11.000
   8.540        110.00	    11.489
   8.560        116.67	    11.832
   8.580         98.33	    10.863
   8.600        123.33	    12.166
   8.620        125.00	    12.247
   8.640        117.50	    11.874
   8.660        123.33	    12.166
   8.680        128.33	    12.410
   8.700        135.83	    12.767
   8.720        119.17	    11.958
   8.740        134.17	    12.689
   8.760        130.00	    12.490
   8.780        132.50	    12.610
   8.800        138.33	    12.884
   8.820        145.83	    13.229
   8.840        140.83	    13.000
   8.860        160.83	    13.892
   8.880        160.00	    13.856
   8.900        168.33	    14.213
   8.920        203.33	    15.620
   8.940        215.83	    16.093
   8.960        227.50	    16.523
   8.980        249.17	    17.292
   9.000        244.17	    17.117
   9.020        236.67	    16.852
   9.040        236.67	    16.852
   9.060        250.83	    17.349
   9.080        201.67	    15.556
   9.100        175.00	    14.491
   9.120        167.50	    14.177
   9.140        145.83	    13.229
   9.160        130.83	    12.530
   9.180        134.17	    12.689
   9.200        123.33	    12.166
   9.220        118.33	    11.916
   9.240        102.50	    11.091
   9.260        124.17	    12.207
   9.280        102.50	    11.091
   9.300        117.50	    11.874
   9.320        100.83	    11.000
   9.340         85.83	    10.149
   9.360        109.17	    11.446
   9.380        127.50	    12.369
   9.400         95.00	    10.677
   9.420        101.67	    11.045
   9.440         98.33	    10.863
   9.460        117.50	    11.874
   9.480        102.50	    11.091
   9.500         94.17	    10.630
   9.520        116.67	    11.832
   9.540        110.83	    11.533
   9.560        120.00	    12.000
   9.580         97.50	    10.817
   9.600        122.50	    12.124
   9.620        112.50	    11.619
   9.640        107.50	    11.358
   9.660         99.17	    10.909
   9.680        100.83	    11.000
   9.700         75.00	     9.487
   9.720         83.33	    10.000
   9.740         81.67	     9.899
   9.760         85.00	    10.100
   9.780         71.67	     9.274
   9.800         94.17	    10.630
   9.820         82.50	     9.950
   9.840         90.83	    10.440
   9.860         80.00	     9.798
   9.880         91.67	    10.488
   9.900        100.00	    10.954
   9.920         79.17	     9.747
   9.940        117.50	    11.874
   9.960         88.33	    10.296
   9.980         83.33	    10.000
  10.000         93.33	    10.583
  10.020         84.17	    10.050
  10.040         80.00	     9.798
  10.060         87.50	    10.247
  10.080         85.83	    10.149
  10.100         70.83	     9.220
  10.120         77.50	     9.644
  10.140         80.00	     9.798
  10.160         86.67	    10.198
  10.180         91.67	    10.488
  10.200         65.83	     8.888
  10.220         70.00	     9.165
  10.240         79.17	     9.747
  10.260         79.17	     9.747
  10.280        102.50	    11.091
  10.300         88.33	    10.296
  10.320         75.00	     9.487
  10.340         84.17	    10.050
  10.360         71.67	     9.274
  10.380         82.50	     9.950
  10.400         80.83	     9.849
  10.420         90.83	    10.440
  10.440         72.50	     9.327
  10.460         86.67	    10.198
  10.480         72.50	     9.327
  10.500         87.50	    10.247
  10.520         80.83	     9.849
  10.540        100.83	    11.000
  10.560        107.50	    11.358
  10.580        105.83	    11.269
  10.600        125.83	    12.288
  10.620        118.33	    11.916
  10.640        173.33	    14.422
  10.660        140.00	    12.961
  10.680        139.17	    12.923
  10.700        135.00	    12.728
  10.720        128.33	    12.410
  10.740        126.67	    12.329
  10.760        130.00	    12.490
  10.780        112.50	    11.619
  10.800         95.83	    10.724
  10.820         78.33	     9.695
  10.840         86.67	    10.198
  10.860         75.00	     9.487
  10.880         65.83	     8.888
  10.900         69.17	     9.110
  10.920         77.50	     9.644
  10.940         72.50	     9.327
  10.960         78.33	     9.695
  10.980         67.50	     9.000
  11.000         79.17	     9.747
  11.020         70.00	     9.165
  11.040         81.67	     9.899
  11.060         82.50	     9.950
  11.080         81.67	     9.899
  11.100         75.83	     9.539
  11.120         65.83	     8.888
  11.140         80.00	     9.798
  11.160         82.50	     9.950
  11.180         60.00	     8.485
  11.200         69.17	     9.110
  11.220         79.17	     9.747
  11.240         83.33	    10.000
  11.260         66.67	     8.944
  11.280         73.33	     9.381
  11.300         60.00	     8.485
  11.320         70.83	     9.220
  11.340         75.83	     9.539
  11.360         71.67	     9.274
  11.380         66.67	     8.944
  11.400         76.67	     9.592
  11.420         57.50	     8.307
  11.440         65.83	     8.888
  11.460         60.83	     8.544
  11.480         70.83	     9.220
  11.500         75.83	     9.539
  11.520         75.00	     9.487
  11.540         64.17	     8.775
  11.560         60.00	     8.485
  11.580         83.33	    10.000
  11.600         77.50	     9.644
  11.620         74.17	     9.434
  11.640         90.00	    10.392
  11.660         95.83	    10.724
  11.680         88.33	    10.296
  11.700        108.33	    11.402
  11.720         90.00	    10.392
  11.740         86.67	    10.198
  11.760         90.00	    10.392
  11.780         85.83	    10.149
  11.800         82.50	     9.950
  11.820         75.83	     9.539
  11.840         87.50	    10.247
  11.860         61.67	     8.602
  11.880         71.67	     9.274
  11.900         80.00	     9.798
  11.920         91.67	    10.488
  11.940         85.00	    10.100
  11.960         66.67	     8.944
  11.980         85.00	    10.100
  12.000         89.17	    10.344
  12.020         89.17	    10.344
  12.040         85.83	    10.149
  12.060         81.67	     9.899
  12.080        110.83	    11.533
  12.100         97.50	    10.817
  12.120        104.17	    11.180
  12.140         99.17	    10.909
  12.160        121.67	    12.083
  12.180        138.33	    12.884
  12.200        144.17	    13.153
  12.220        189.17	    15.067
  12.240        255.00	    17.493
  12.260        265.00	    17.833
  12.280        327.50	    19.824
  12.300        371.67	    21.119
  12.320        372.50	    21.142
  12.340        367.50	    21.000
  12.360        368.33	    21.024
  12.380        359.17	    20.761
  12.400        343.33	    20.298
  12.420        299.17	    18.947
  12.440        264.17	    17.804
  12.460        244.17	    17.117
  12.480        230.83	    16.643
  12.500        230.00	    16.613
  12.520        252.50	    17.407
  12.540        234.17	    16.763
  12.560        260.83	    17.692
  12.580        295.00	    18.815
  12.600        287.50	    18.574
  12.620        311.67	    19.339
  12.640        308.33	    19.235
  12.660        267.50	    17.916
  12.680        268.33	    17.944
  12.700        227.50	    16.523
  12.720        188.33	    15.033
  12.740        159.17	    13.820
  12.760        136.67	    12.806
  12.780        126.67	    12.329
  12.800         95.00	    10.677
  12.820         79.17	     9.747
  12.840         67.50	     9.000
  12.860         75.00	     9.487
  12.880         82.50	     9.950
  12.900         85.83	    10.149
  12.920         80.83	     9.849
  12.940         69.17	     9.110
  12.960         62.50	     8.660
  12.980         70.83	     9.220
  13.000         72.50	     9.327
  13.020         63.33	     8.718
  13.040         50.00	     7.746
  13.060         63.33	     8.718
  13.080         66.67	     8.944
  13.100         53.33	     8.000
  13.120         59.17	     8.426
  13.140         60.83	     8.544
  13.160         57.50	     8.307
  13.180         55.83	     8.185
  13.200         67.50	     9.000
  13.220         70.00	     9.165
  13.240         62.50	     8.660
  13.260         65.83	     8.888
  13.280         56.67	     8.246
  13.300         65.83	     8.888
  13.320         57.50	     8.307
  13.340         65.00	     8.832
  13.360         55.00	     8.124
  13.380         60.83	     8.544
  13.400         60.83	     8.544
  13.420         54.17	     8.062
  13.440         59.17	     8.426
  13.460         60.83	     8.544
  13.480         56.67	     8.246
  13.500         49.17	     7.681
  13.520         67.50	     9.000
  13.540         57.50	     8.307
  13.560         67.50	     9.000
  13.580         70.83	     9.220
  13.600         54.17	     8.062
  13.620         65.00	     8.832
  13.640         47.50	     7.550
  13.660         72.50	     9.327
  13.680         66.67	     8.944
  13.700         48.33	     7.616
  13.720         52.50	     7.937
  13.740         51.67	     7.874
  13.760         65.00	     8.832
  13.780         66.67	     8.944
  13.800         40.83	     7.000
  13.820         61.67	     8.602
  13.840         55.00	     8.124
  13.860         57.50	     8.307
  13.880         54.17	     8.062
  13.900         69.17	     9.110
  13.920         71.67	     9.274
  13.940         81.67	     9.899
  13.960         57.50	     8.307
  13.980         77.50	     9.644
  14.000         76.67	     9.592
  14.020         72.50	     9.327
  14.040         81.67	     9.899
  14.060         73.33	     9.381
  14.080         56.67	     8.246
  14.100         53.33	     8.000
  14.120         67.50	     9.000
  14.140         50.83	     7.810
  14.160         47.50	     7.550
  14.180         50.83	     7.810
  14.200         54.17	     8.062
  14.220         38.33	     6.782
  14.240         55.00	     8.124
  14.260         55.00	     8.124
  14.280         56.67	     8.246
  14.300         54.17	     8.062
  14.320         56.67	     8.246
  14.340         50.00	     7.746
  14.360         47.50	     7.550
  14.380         47.50	     7.550
  14.400         59.17	     8.426
