
Filename:
	C:\Program Files\Thermo Electron\WinXRD\Datafiles\F_HERMAN\GEO\GG_11B_SFT.raw

File Created:
	October 12, 2020 - 10:38 PM

Specimen Id:
	GG_11B_SFT

Specimen Name:
	

Specimen Description:
	

Comment:
Scan Type: 2Theta Scan
Start Angle: 3 deg.
Stop Angle: 65 deg.
Num Points: 3101
Step Size: 0.02 deg.
Scan Rate: 1.000000
Scan Mode: Continuous
Wavelength: 1.540562
\Kalpha1: 1.540562	\Kalpha2: 1.544390	\Kbeta: 1.392218

Optics:
		Detector:
			 Type: Fixed Slits
		Tube: 
			 Type: Fixed Slits


Datas:
 Pos [deg]       Rate [CPS]      ESD [-]

Range 1 ---> Iteration 1
   3.000        454.17	    23.345
   3.020        470.00	    23.749
   3.040        434.17	    22.825
   3.060        421.67	    22.494
   3.080        431.67	    22.760
   3.100        456.67	    23.409
   3.120        449.17	    23.216
   3.140        405.00	    22.045
   3.160        402.50	    21.977
   3.180        410.00	    22.181
   3.200        417.50	    22.383
   3.220        400.83	    21.932
   3.240        376.67	    21.260
   3.260        397.50	    21.840
   3.280        400.00	    21.909
   3.300        376.67	    21.260
   3.320        415.00	    22.316
   3.340        408.33	    22.136
   3.360        371.67	    21.119
   3.380        370.00	    21.071
   3.400        408.33	    22.136
   3.420        390.00	    21.633
   3.440        370.00	    21.071
   3.460        378.33	    21.307
   3.480        370.00	    21.071
   3.500        366.67	    20.976
   3.520        359.17	    20.761
   3.540        369.17	    21.048
   3.560        395.00	    21.772
   3.580        370.83	    21.095
   3.600        370.83	    21.095
   3.620        339.17	    20.174
   3.640        369.17	    21.048
   3.660        365.83	    20.952
   3.680        341.67	    20.248
   3.700        346.67	    20.396
   3.720        368.33	    21.024
   3.740        377.50	    21.284
   3.760        312.50	    19.365
   3.780        339.17	    20.174
   3.800        329.17	    19.875
   3.820        360.00	    20.785
   3.840        359.17	    20.761
   3.860        349.17	    20.469
   3.880        357.50	    20.712
   3.900        327.50	    19.824
   3.920        341.67	    20.248
   3.940        346.67	    20.396
   3.960        326.67	    19.799
   3.980        332.50	    19.975
   4.000        327.50	    19.824
   4.020        357.50	    20.712
   4.040        333.33	    20.000
   4.060        305.83	    19.157
   4.080        322.50	    19.672
   4.100        313.33	    19.391
   4.120        325.83	    19.774
   4.140        304.17	    19.105
   4.160        316.67	    19.494
   4.180        289.17	    18.628
   4.200        319.17	    19.570
   4.220        323.33	    19.698
   4.240        305.83	    19.157
   4.260        270.00	    18.000
   4.280        317.50	    19.519
   4.300        308.33	    19.235
   4.320        285.00	    18.493
   4.340        306.67	    19.183
   4.360        281.67	    18.385
   4.380        309.17	    19.261
   4.400        324.17	    19.723
   4.420        303.33	    19.079
   4.440        286.67	    18.547
   4.460        297.50	    18.894
   4.480        322.50	    19.672
   4.500        299.17	    18.947
   4.520        294.17	    18.788
   4.540        293.33	    18.762
   4.560        292.50	    18.735
   4.580        296.67	    18.868
   4.600        259.17	    17.635
   4.620        277.50	    18.248
   4.640        287.50	    18.574
   4.660        278.33	    18.276
   4.680        284.17	    18.466
   4.700        280.00	    18.330
   4.720        249.17	    17.292
   4.740        279.17	    18.303
   4.760        289.17	    18.628
   4.780        261.67	    17.720
   4.800        269.17	    17.972
   4.820        229.17	    16.583
   4.840        270.00	    18.000
   4.860        266.67	    17.889
   4.880        281.67	    18.385
   4.900        250.83	    17.349
   4.920        247.50	    17.234
   4.940        253.33	    17.436
   4.960        270.00	    18.000
   4.980        257.50	    17.578
   5.000        230.00	    16.613
   5.020        244.17	    17.117
   5.040        224.17	    16.401
   5.060        278.33	    18.276
   5.080        256.67	    17.550
   5.100        230.00	    16.613
   5.120        233.33	    16.733
   5.140        258.33	    17.607
   5.160        253.33	    17.436
   5.180        236.67	    16.852
   5.200        246.67	    17.205
   5.220        235.00	    16.793
   5.240        234.17	    16.763
   5.260        254.17	    17.464
   5.280        250.83	    17.349
   5.300        236.67	    16.852
   5.320        267.50	    17.916
   5.340        258.33	    17.607
   5.360        270.00	    18.000
   5.380        255.83	    17.521
   5.400        233.33	    16.733
   5.420        230.83	    16.643
   5.440        230.83	    16.643
   5.460        250.83	    17.349
   5.480        249.17	    17.292
   5.500        243.33	    17.088
   5.520        230.83	    16.643
   5.540        238.33	    16.912
   5.560        221.67	    16.310
   5.580        255.00	    17.493
   5.600        243.33	    17.088
   5.620        236.67	    16.852
   5.640        246.67	    17.205
   5.660        220.00	    16.248
   5.680        261.67	    17.720
   5.700        257.50	    17.578
   5.720        237.50	    16.882
   5.740        240.83	    17.000
   5.760        261.67	    17.720
   5.780        244.17	    17.117
   5.800        266.67	    17.889
   5.820        290.00	    18.655
   5.840        292.50	    18.735
   5.860        274.17	    18.138
   5.880        308.33	    19.235
   5.900        295.83	    18.841
   5.920        305.00	    19.131
   5.940        290.00	    18.655
   5.960        315.00	    19.442
   5.980        300.00	    18.974
   6.000        350.83	    20.518
   6.020        345.00	    20.347
   6.040        393.33	    21.726
   6.060        397.50	    21.840
   6.080        431.67	    22.760
   6.100        431.67	    22.760
   6.120        505.00	    24.617
   6.140        536.67	    25.377
   6.160        606.67	    26.981
   6.180        640.83	    27.731
   6.200        670.83	    28.373
   6.220        776.67	    30.529
   6.240        789.17	    30.773
   6.260        890.83	    32.696
   6.280        887.50	    32.634
   6.300        840.83	    31.765
   6.320        760.00	    30.199
   6.340        710.00	    29.189
   6.360        585.00	    26.495
   6.380        465.83	    23.643
   6.400        448.33	    23.195
   6.420        410.83	    22.204
   6.440        376.67	    21.260
   6.460        353.33	    20.591
   6.480        366.67	    20.976
   6.500        363.33	    20.881
   6.520        365.83	    20.952
   6.540        350.83	    20.518
   6.560        320.00	    19.596
   6.580        334.17	    20.025
   6.600        290.83	    18.682
   6.620        297.50	    18.894
   6.640        318.33	    19.545
   6.660        316.67	    19.494
   6.680        326.67	    19.799
   6.700        302.50	    19.053
   6.720        297.50	    18.894
   6.740        286.67	    18.547
   6.760        286.67	    18.547
   6.780        261.67	    17.720
   6.800        302.50	    19.053
   6.820        297.50	    18.894
   6.840        303.33	    19.079
   6.860        282.50	    18.412
   6.880        287.50	    18.574
   6.900        278.33	    18.276
   6.920        276.67	    18.221
   6.940        288.33	    18.601
   6.960        248.33	    17.263
   6.980        283.33	    18.439
   7.000        260.83	    17.692
   7.020        267.50	    17.916
   7.040        290.83	    18.682
   7.060        268.33	    17.944
   7.080        247.50	    17.234
   7.100        251.67	    17.378
   7.120        279.17	    18.303
   7.140        261.67	    17.720
   7.160        275.83	    18.193
   7.180        250.83	    17.349
   7.200        254.17	    17.464
   7.220        269.17	    17.972
   7.240        244.17	    17.117
   7.260        266.67	    17.889
   7.280        262.50	    17.748
   7.300        265.00	    17.833
   7.320        224.17	    16.401
   7.340        226.67	    16.492
   7.360        247.50	    17.234
   7.380        240.83	    17.000
   7.400        253.33	    17.436
   7.420        229.17	    16.583
   7.440        224.17	    16.401
   7.460        232.50	    16.703
   7.480        221.67	    16.310
   7.500        205.00	    15.684
   7.520        235.00	    16.793
   7.540        200.83	    15.524
   7.560        266.67	    17.889
   7.580        232.50	    16.703
   7.600        214.17	    16.031
   7.620        218.33	    16.186
   7.640        195.83	    15.330
   7.660        213.33	    16.000
   7.680        237.50	    16.882
   7.700        195.00	    15.297
   7.720        215.83	    16.093
   7.740        210.00	    15.875
   7.760        203.33	    15.620
   7.780        259.17	    17.635
   7.800        196.67	    15.362
   7.820        222.50	    16.340
   7.840        220.83	    16.279
   7.860        220.83	    16.279
   7.880        225.83	    16.462
   7.900        200.00	    15.492
   7.920        212.50	    15.969
   7.940        210.83	    15.906
   7.960        215.00	    16.062
   7.980        201.67	    15.556
   8.000        220.00	    16.248
   8.020        223.33	    16.371
   8.040        210.00	    15.875
   8.060        225.83	    16.462
   8.080        200.83	    15.524
   8.100        222.50	    16.340
   8.120        226.67	    16.492
   8.140        215.83	    16.093
   8.160        229.17	    16.583
   8.180        204.17	    15.652
   8.200        255.83	    17.521
   8.220        237.50	    16.882
   8.240        238.33	    16.912
   8.260        280.00	    18.330
   8.280        229.17	    16.583
   8.300        246.67	    17.205
   8.320        217.50	    16.155
   8.340        275.83	    18.193
   8.360        251.67	    17.378
   8.380        271.67	    18.055
   8.400        279.17	    18.303
   8.420        289.17	    18.628
   8.440        289.17	    18.628
   8.460        313.33	    19.391
   8.480        307.50	    19.209
   8.500        325.83	    19.774
   8.520        320.83	    19.621
   8.540        318.33	    19.545
   8.560        350.83	    20.518
   8.580        359.17	    20.761
   8.600        425.83	    22.605
   8.620        394.17	    21.749
   8.640        449.17	    23.216
   8.660        425.83	    22.605
   8.680        477.50	    23.937
   8.700        474.17	    23.854
   8.720        541.67	    25.495
   8.740        511.67	    24.779
   8.760        605.00	    26.944
   8.780        634.17	    27.586
   8.800        706.67	    29.120
   8.820        758.33	    30.166
   8.840        805.83	    31.097
   8.860        888.33	    32.650
   8.880       1040.00	    35.327
   8.900       1093.33	    36.222
   8.920       1168.33	    37.443
   8.940       1216.67	    38.210
   8.960       1065.00	    35.749
   8.980        845.00	    31.843
   9.000        672.50	    28.408
   9.020        550.00	    25.690
   9.040        391.67	    21.679
   9.060        315.83	    19.468
   9.080        310.83	    19.313
   9.100        255.83	    17.521
   9.120        264.17	    17.804
   9.140        272.50	    18.083
   9.160        259.17	    17.635
   9.180        237.50	    16.882
   9.200        223.33	    16.371
   9.220        255.00	    17.493
   9.240        219.17	    16.217
   9.260        245.83	    17.176
   9.280        193.33	    15.232
   9.300        205.00	    15.684
   9.320        220.83	    16.279
   9.340        196.67	    15.362
   9.360        208.33	    15.811
   9.380        210.83	    15.906
   9.400        229.17	    16.583
   9.420        229.17	    16.583
   9.440        283.33	    18.439
   9.460        315.83	    19.468
   9.480        299.17	    18.947
   9.500        310.83	    19.313
   9.520        316.67	    19.494
   9.540        281.67	    18.385
   9.560        237.50	    16.882
   9.580        194.17	    15.264
   9.600        165.83	    14.107
   9.620        150.83	    13.454
   9.640        130.83	    12.530
   9.660        140.00	    12.961
   9.680        150.00	    13.416
   9.700        135.00	    12.728
   9.720        135.00	    12.728
   9.740        128.33	    12.410
   9.760        148.33	    13.342
   9.780        138.33	    12.884
   9.800        139.17	    12.923
   9.820        156.67	    13.711
   9.840        136.67	    12.806
   9.860        138.33	    12.884
   9.880        148.33	    13.342
   9.900        131.67	    12.570
   9.920        136.67	    12.806
   9.940        119.17	    11.958
   9.960        117.50	    11.874
   9.980        123.33	    12.166
  10.000        118.33	    11.916
  10.020        123.33	    12.166
  10.040        121.67	    12.083
  10.060        137.50	    12.845
  10.080        126.67	    12.329
  10.100        117.50	    11.874
  10.120        116.67	    11.832
  10.140        118.33	    11.916
  10.160        108.33	    11.402
  10.180        135.00	    12.728
  10.200        110.00	    11.489
  10.220        138.33	    12.884
  10.240        109.17	    11.446
  10.260        118.33	    11.916
  10.280         98.33	    10.863
  10.300        125.83	    12.288
  10.320        126.67	    12.329
  10.340         98.33	    10.863
  10.360        108.33	    11.402
  10.380        115.00	    11.747
  10.400        120.00	    12.000
  10.420        144.17	    13.153
  10.440        125.00	    12.247
  10.460        145.83	    13.229
  10.480        160.00	    13.856
  10.500        173.33	    14.422
  10.520        209.17	    15.843
  10.540        263.33	    17.776
  10.560        253.33	    17.436
  10.580        255.83	    17.521
  10.600        222.50	    16.340
  10.620        201.67	    15.556
  10.640        185.00	    14.900
  10.660        165.00	    14.071
  10.680        125.83	    12.288
  10.700        119.17	    11.958
  10.720        129.17	    12.450
  10.740        116.67	    11.832
  10.760         95.00	    10.677
  10.780        109.17	    11.446
  10.800        121.67	    12.083
  10.820        107.50	    11.358
  10.840        101.67	    11.045
  10.860         97.50	    10.817
  10.880        104.17	    11.180
  10.900         71.67	     9.274
  10.920        105.83	    11.269
  10.940        102.50	    11.091
  10.960         76.67	     9.592
  10.980        112.50	    11.619
  11.000        100.00	    10.954
  11.020        106.67	    11.314
  11.040        107.50	    11.358
  11.060        107.50	    11.358
  11.080         94.17	    10.630
  11.100         96.67	    10.770
  11.120        104.17	    11.180
  11.140         91.67	    10.488
  11.160        102.50	    11.091
  11.180        100.83	    11.000
  11.200        103.33	    11.136
  11.220        113.33	    11.662
  11.240        103.33	    11.136
  11.260        119.17	    11.958
  11.280        105.00	    11.225
  11.300        116.67	    11.832
  11.320        105.83	    11.269
  11.340         97.50	    10.817
  11.360        115.83	    11.790
  11.380        101.67	    11.045
  11.400         98.33	    10.863
  11.420         99.17	    10.909
  11.440        107.50	    11.358
  11.460        102.50	    11.091
  11.480        120.83	    12.042
  11.500        115.83	    11.790
  11.520        110.00	    11.489
  11.540        120.83	    12.042
  11.560        112.50	    11.619
  11.580        112.50	    11.619
  11.600        124.17	    12.207
  11.620        119.17	    11.958
  11.640        127.50	    12.369
  11.660        126.67	    12.329
  11.680        115.83	    11.790
  11.700        121.67	    12.083
  11.720        146.67	    13.266
  11.740        136.67	    12.806
  11.760        152.50	    13.528
  11.780        135.83	    12.767
  11.800        139.17	    12.923
  11.820        141.67	    13.038
  11.840        147.50	    13.304
  11.860        132.50	    12.610
  11.880        153.33	    13.565
  11.900        147.50	    13.304
  11.920        140.00	    12.961
  11.940        149.17	    13.379
  11.960        180.00	    14.697
  11.980        178.33	    14.629
  12.000        207.50	    15.780
  12.020        220.00	    16.248
  12.040        240.83	    17.000
  12.060        271.67	    18.055
  12.080        315.83	    19.468
  12.100        401.67	    21.954
  12.120        481.67	    24.042
  12.140        607.50	    27.000
  12.160        783.33	    30.659
  12.180       1039.17	    35.313
  12.200       1298.33	    39.472
  12.220       1543.33	    43.035
  12.240       1966.67	    48.580
  12.260       2025.00	    49.295
  12.280       1770.00	    46.087
  12.300       1434.17	    41.485
  12.320       1072.50	    35.875
  12.340        793.33	    30.854
  12.360        707.50	    29.138
  12.380        736.67	    29.732
  12.400        757.50	    30.150
  12.420        814.17	    31.257
  12.440        877.50	    32.450
  12.460        929.17	    33.392
  12.480       1041.67	    35.355
  12.500       1126.67	    36.770
  12.520       1203.33	    38.000
  12.540       1368.33	    40.522
  12.560       1238.33	    38.549
  12.580       1135.83	    36.919
  12.600        876.67	    32.435
  12.620        586.67	    26.533
  12.640        425.83	    22.605
  12.660        306.67	    19.183
  12.680        242.50	    17.059
  12.700        222.50	    16.340
  12.720        210.00	    15.875
  12.740        170.83	    14.318
  12.760        165.00	    14.071
  12.780        160.00	    13.856
  12.800        160.83	    13.892
  12.820        138.33	    12.884
  12.840        140.83	    13.000
  12.860        133.33	    12.649
  12.880        110.00	    11.489
  12.900        117.50	    11.874
  12.920        122.50	    12.124
  12.940        107.50	    11.358
  12.960        104.17	    11.180
  12.980         98.33	    10.863
  13.000         75.00	     9.487
  13.020        101.67	    11.045
  13.040         93.33	    10.583
  13.060        106.67	    11.314
  13.080         85.00	    10.100
  13.100         96.67	    10.770
  13.120         96.67	    10.770
  13.140        104.17	    11.180
  13.160         95.00	    10.677
  13.180         69.17	     9.110
  13.200         71.67	     9.274
  13.220         76.67	     9.592
  13.240         85.83	    10.149
  13.260         90.00	    10.392
  13.280         92.50	    10.536
  13.300         77.50	     9.644
  13.320         99.17	    10.909
  13.340         73.33	     9.381
  13.360         80.83	     9.849
  13.380         89.17	    10.344
  13.400         87.50	    10.247
  13.420         96.67	    10.770
  13.440         80.00	     9.798
  13.460         90.83	    10.440
  13.480         80.83	     9.849
  13.500        104.17	    11.180
  13.520         83.33	    10.000
  13.540         95.00	    10.677
  13.560         95.00	    10.677
  13.580         74.17	     9.434
  13.600         73.33	     9.381
  13.620         75.00	     9.487
  13.640         72.50	     9.327
  13.660         82.50	     9.950
  13.680         79.17	     9.747
  13.700         70.00	     9.165
  13.720         78.33	     9.695
  13.740         55.83	     8.185
  13.760         69.17	     9.110
  13.780         74.17	     9.434
  13.800         94.17	    10.630
  13.820         78.33	     9.695
  13.840         66.67	     8.944
  13.860         80.83	     9.849
  13.880         80.83	     9.849
  13.900         91.67	    10.488
  13.920         76.67	     9.592
  13.940         95.00	    10.677
  13.960         76.67	     9.592
  13.980         77.50	     9.644
  14.000         80.83	     9.849
  14.020         78.33	     9.695
  14.040         73.33	     9.381
  14.060         70.00	     9.165
  14.080         65.00	     8.832
  14.100         71.67	     9.274
  14.120         84.17	    10.050
  14.140         61.67	     8.602
  14.160         62.50	     8.660
  14.180         69.17	     9.110
  14.200         63.33	     8.718
  14.220         70.00	     9.165
  14.240         62.50	     8.660
  14.260         60.83	     8.544
  14.280         53.33	     8.000
  14.300         57.50	     8.307
  14.320         63.33	     8.718
  14.340         65.00	     8.832
  14.360         64.17	     8.775
  14.380         60.00	     8.485
  14.400         55.83	     8.185
