
Filename:
	C:\Program Files\Thermo Electron\WinXRD\Datafiles\F_HERMAN\GEO\GG_17_SFT.raw

File Created:
	October 14, 2020 - 01:03 AM

Specimen Id:
	GG_17_SFT

Specimen Name:
	

Specimen Description:
	

Comment:
Scan Type: 2Theta Scan
Start Angle: 3 deg.
Stop Angle: 65 deg.
Num Points: 3101
Step Size: 0.02 deg.
Scan Rate: 1.000000
Scan Mode: Continuous
Wavelength: 1.540562
\Kalpha1: 1.540562	\Kalpha2: 1.544390	\Kbeta: 1.392218

Optics:
		Detector:
			 Type: Fixed Slits
		Tube: 
			 Type: Fixed Slits


Datas:
 Pos [deg]       Rate [CPS]      ESD [-]

Range 1 ---> Iteration 1
   3.000        365.00	    20.928
   3.020        348.33	    20.445
   3.040        359.17	    20.761
   3.060        351.67	    20.543
   3.080        355.83	    20.664
   3.100        346.67	    20.396
   3.120        342.50	    20.273
   3.140        358.33	    20.736
   3.160        364.17	    20.905
   3.180        325.00	    19.748
   3.200        395.00	    21.772
   3.220        364.17	    20.905
   3.240        329.17	    19.875
   3.260        312.50	    19.365
   3.280        318.33	    19.545
   3.300        325.83	    19.774
   3.320        309.17	    19.261
   3.340        305.00	    19.131
   3.360        324.17	    19.723
   3.380        316.67	    19.494
   3.400        297.50	    18.894
   3.420        305.83	    19.157
   3.440        305.83	    19.157
   3.460        290.00	    18.655
   3.480        284.17	    18.466
   3.500        291.67	    18.708
   3.520        298.33	    18.921
   3.540        338.33	    20.149
   3.560        309.17	    19.261
   3.580        304.17	    19.105
   3.600        282.50	    18.412
   3.620        300.83	    19.000
   3.640        295.83	    18.841
   3.660        289.17	    18.628
   3.680        273.33	    18.111
   3.700        311.67	    19.339
   3.720        295.00	    18.815
   3.740        272.50	    18.083
   3.760        264.17	    17.804
   3.780        314.17	    19.416
   3.800        273.33	    18.111
   3.820        300.83	    19.000
   3.840        240.00	    16.971
   3.860        245.00	    17.146
   3.880        263.33	    17.776
   3.900        290.83	    18.682
   3.920        259.17	    17.635
   3.940        270.00	    18.000
   3.960        255.00	    17.493
   3.980        222.50	    16.340
   4.000        249.17	    17.292
   4.020        268.33	    17.944
   4.040        274.17	    18.138
   4.060        234.17	    16.763
   4.080        226.67	    16.492
   4.100        231.67	    16.673
   4.120        284.17	    18.466
   4.140        243.33	    17.088
   4.160        245.83	    17.176
   4.180        285.00	    18.493
   4.200        235.00	    16.793
   4.220        250.83	    17.349
   4.240        255.83	    17.521
   4.260        232.50	    16.703
   4.280        255.83	    17.521
   4.300        228.33	    16.553
   4.320        246.67	    17.205
   4.340        249.17	    17.292
   4.360        226.67	    16.492
   4.380        242.50	    17.059
   4.400        258.33	    17.607
   4.420        227.50	    16.523
   4.440        250.83	    17.349
   4.460        240.00	    16.971
   4.480        232.50	    16.703
   4.500        219.17	    16.217
   4.520        178.33	    14.629
   4.540        227.50	    16.523
   4.560        206.67	    15.748
   4.580        215.83	    16.093
   4.600        209.17	    15.843
   4.620        235.00	    16.793
   4.640        238.33	    16.912
   4.660        243.33	    17.088
   4.680        207.50	    15.780
   4.700        210.00	    15.875
   4.720        208.33	    15.811
   4.740        223.33	    16.371
   4.760        218.33	    16.186
   4.780        189.17	    15.067
   4.800        188.33	    15.033
   4.820        185.00	    14.900
   4.840        181.67	    14.765
   4.860        220.00	    16.248
   4.880        227.50	    16.523
   4.900        200.00	    15.492
   4.920        203.33	    15.620
   4.940        200.83	    15.524
   4.960        194.17	    15.264
   4.980        195.00	    15.297
   5.000        189.17	    15.067
   5.020        197.50	    15.395
   5.040        216.67	    16.125
   5.060        185.83	    14.933
   5.080        191.67	    15.166
   5.100        180.00	    14.697
   5.120        161.67	    13.928
   5.140        186.67	    14.967
   5.160        195.83	    15.330
   5.180        169.17	    14.248
   5.200        185.00	    14.900
   5.220        181.67	    14.765
   5.240        179.17	    14.663
   5.260        179.17	    14.663
   5.280        175.83	    14.526
   5.300        165.83	    14.107
   5.320        161.67	    13.928
   5.340        193.33	    15.232
   5.360        160.00	    13.856
   5.380        172.50	    14.387
   5.400        172.50	    14.387
   5.420        169.17	    14.248
   5.440        195.83	    15.330
   5.460        183.33	    14.832
   5.480        200.00	    15.492
   5.500        148.33	    13.342
   5.520        155.00	    13.638
   5.540        162.50	    13.964
   5.560        169.17	    14.248
   5.580        168.33	    14.213
   5.600        175.00	    14.491
   5.620        174.17	    14.457
   5.640        168.33	    14.213
   5.660        165.00	    14.071
   5.680        172.50	    14.387
   5.700        181.67	    14.765
   5.720        175.83	    14.526
   5.740        184.17	    14.866
   5.760        159.17	    13.820
   5.780        187.50	    15.000
   5.800        178.33	    14.629
   5.820        145.83	    13.229
   5.840        189.17	    15.067
   5.860        142.50	    13.077
   5.880        185.83	    14.933
   5.900        172.50	    14.387
   5.920        182.50	    14.799
   5.940        170.83	    14.318
   5.960        183.33	    14.832
   5.980        175.00	    14.491
   6.000        155.00	    13.638
   6.020        177.50	    14.595
   6.040        180.00	    14.697
   6.060        192.50	    15.199
   6.080        183.33	    14.832
   6.100        200.83	    15.524
   6.120        210.00	    15.875
   6.140        226.67	    16.492
   6.160        264.17	    17.804
   6.180        230.83	    16.643
   6.200        265.00	    17.833
   6.220        244.17	    17.117
   6.240        281.67	    18.385
   6.260        294.17	    18.788
   6.280        283.33	    18.439
   6.300        318.33	    19.545
   6.320        324.17	    19.723
   6.340        301.67	    19.026
   6.360        294.17	    18.788
   6.380        281.67	    18.385
   6.400        259.17	    17.635
   6.420        247.50	    17.234
   6.440        228.33	    16.553
   6.460        214.17	    16.031
   6.480        176.67	    14.560
   6.500        161.67	    13.928
   6.520        165.83	    14.107
   6.540        161.67	    13.928
   6.560        165.83	    14.107
   6.580        149.17	    13.379
   6.600        175.00	    14.491
   6.620        136.67	    12.806
   6.640        145.00	    13.191
   6.660        154.17	    13.601
   6.680        135.00	    12.728
   6.700        155.00	    13.638
   6.720        154.17	    13.601
   6.740        148.33	    13.342
   6.760        150.00	    13.416
   6.780        162.50	    13.964
   6.800        140.83	    13.000
   6.820        150.83	    13.454
   6.840        170.83	    14.318
   6.860        161.67	    13.928
   6.880        138.33	    12.884
   6.900        152.50	    13.528
   6.920        151.67	    13.491
   6.940        136.67	    12.806
   6.960        140.83	    13.000
   6.980        151.67	    13.491
   7.000        139.17	    12.923
   7.020        158.33	    13.784
   7.040        169.17	    14.248
   7.060        164.17	    14.036
   7.080        130.83	    12.530
   7.100        135.00	    12.728
   7.120        146.67	    13.266
   7.140        160.00	    13.856
   7.160        154.17	    13.601
   7.180        124.17	    12.207
   7.200        145.00	    13.191
   7.220        124.17	    12.207
   7.240        139.17	    12.923
   7.260        132.50	    12.610
   7.280        130.83	    12.530
   7.300        142.50	    13.077
   7.320        147.50	    13.304
   7.340        124.17	    12.207
   7.360        116.67	    11.832
   7.380        118.33	    11.916
   7.400        138.33	    12.884
   7.420        134.17	    12.689
   7.440        129.17	    12.450
   7.460        137.50	    12.845
   7.480        131.67	    12.570
   7.500        128.33	    12.410
   7.520        145.00	    13.191
   7.540        132.50	    12.610
   7.560        140.83	    13.000
   7.580        133.33	    12.649
   7.600        125.83	    12.288
   7.620        110.83	    11.533
   7.640        111.67	    11.576
   7.660        116.67	    11.832
   7.680        130.83	    12.530
   7.700        141.67	    13.038
   7.720        130.00	    12.490
   7.740        117.50	    11.874
   7.760        135.83	    12.767
   7.780        128.33	    12.410
   7.800        108.33	    11.402
   7.820        136.67	    12.806
   7.840        132.50	    12.610
   7.860        120.83	    12.042
   7.880        112.50	    11.619
   7.900        125.83	    12.288
   7.920        100.83	    11.000
   7.940        132.50	    12.610
   7.960        129.17	    12.450
   7.980        122.50	    12.124
   8.000        106.67	    11.314
   8.020        115.00	    11.747
   8.040        139.17	    12.923
   8.060        117.50	    11.874
   8.080        130.00	    12.490
   8.100        122.50	    12.124
   8.120         98.33	    10.863
   8.140        139.17	    12.923
   8.160        120.83	    12.042
   8.180        115.00	    11.747
   8.200         97.50	    10.817
   8.220        119.17	    11.958
   8.240        127.50	    12.369
   8.260        122.50	    12.124
   8.280        133.33	    12.649
   8.300        118.33	    11.916
   8.320        126.67	    12.329
   8.340        127.50	    12.369
   8.360        132.50	    12.610
   8.380        116.67	    11.832
   8.400        110.83	    11.533
   8.420        130.83	    12.530
   8.440        125.00	    12.247
   8.460        150.00	    13.416
   8.480        135.00	    12.728
   8.500        130.00	    12.490
   8.520        142.50	    13.077
   8.540        151.67	    13.491
   8.560        151.67	    13.491
   8.580        131.67	    12.570
   8.600        120.83	    12.042
   8.620        157.50	    13.748
   8.640        148.33	    13.342
   8.660        147.50	    13.304
   8.680        140.83	    13.000
   8.700        151.67	    13.491
   8.720        159.17	    13.820
   8.740        177.50	    14.595
   8.760        161.67	    13.928
   8.780        207.50	    15.780
   8.800        203.33	    15.620
   8.820        229.17	    16.583
   8.840        219.17	    16.217
   8.860        245.00	    17.146
   8.880        290.00	    18.655
   8.900        306.67	    19.183
   8.920        303.33	    19.079
   8.940        325.83	    19.774
   8.960        405.83	    22.068
   8.980        452.50	    23.302
   9.000        500.00	    24.495
   9.020        492.50	    24.310
   9.040        499.17	    24.474
   9.060        420.83	    22.472
   9.080        335.00	    20.050
   9.100        214.17	    16.031
   9.120        187.50	    15.000
   9.140        155.83	    13.675
   9.160        130.83	    12.530
   9.180        148.33	    13.342
   9.200        139.17	    12.923
   9.220        132.50	    12.610
   9.240        125.83	    12.288
   9.260        140.00	    12.961
   9.280        128.33	    12.410
   9.300        117.50	    11.874
   9.320        132.50	    12.610
   9.340        120.83	    12.042
   9.360        110.83	    11.533
   9.380        127.50	    12.369
   9.400        107.50	    11.358
   9.420         89.17	    10.344
   9.440        115.83	    11.790
   9.460        119.17	    11.958
   9.480        115.00	    11.747
   9.500        128.33	    12.410
   9.520        130.00	    12.490
   9.540        140.83	    13.000
   9.560        147.50	    13.304
   9.580        150.83	    13.454
   9.600        169.17	    14.248
   9.620        131.67	    12.570
   9.640        128.33	    12.410
   9.660        118.33	    11.916
   9.680         97.50	    10.817
   9.700        102.50	    11.091
   9.720         89.17	    10.344
   9.740         97.50	    10.817
   9.760        101.67	    11.045
   9.780         78.33	     9.695
   9.800        102.50	    11.091
   9.820         77.50	     9.644
   9.840        100.83	    11.000
   9.860         98.33	    10.863
   9.880         97.50	    10.817
   9.900        100.00	    10.954
   9.920         85.00	    10.100
   9.940         69.17	     9.110
   9.960         97.50	    10.817
   9.980         96.67	    10.770
  10.000         92.50	    10.536
  10.020         99.17	    10.909
  10.040         75.00	     9.487
  10.060         85.83	    10.149
  10.080         92.50	    10.536
  10.100         87.50	    10.247
  10.120         84.17	    10.050
  10.140         81.67	     9.899
  10.160         80.83	     9.849
  10.180         81.67	     9.899
  10.200         95.00	    10.677
  10.220         90.00	    10.392
  10.240         89.17	    10.344
  10.260         86.67	    10.198
  10.280         78.33	     9.695
  10.300         80.83	     9.849
  10.320         80.83	     9.849
  10.340         93.33	    10.583
  10.360         77.50	     9.644
  10.380         72.50	     9.327
  10.400         73.33	     9.381
  10.420         80.00	     9.798
  10.440         82.50	     9.950
  10.460         87.50	    10.247
  10.480         90.83	    10.440
  10.500         81.67	     9.899
  10.520         95.00	    10.677
  10.540        112.50	    11.619
  10.560         93.33	    10.583
  10.580        129.17	    12.450
  10.600        125.83	    12.288
  10.620        145.00	    13.191
  10.640        143.33	    13.115
  10.660        166.67	    14.142
  10.680        181.67	    14.765
  10.700        130.83	    12.530
  10.720        111.67	    11.576
  10.740        106.67	    11.314
  10.760         88.33	    10.296
  10.780         92.50	    10.536
  10.800         72.50	     9.327
  10.820         75.83	     9.539
  10.840         68.33	     9.055
  10.860         65.00	     8.832
  10.880         81.67	     9.899
  10.900         76.67	     9.592
  10.920         75.83	     9.539
  10.940         75.00	     9.487
  10.960         80.00	     9.798
  10.980         78.33	     9.695
  11.000         81.67	     9.899
  11.020         79.17	     9.747
  11.040         63.33	     8.718
  11.060         61.67	     8.602
  11.080         79.17	     9.747
  11.100         75.00	     9.487
  11.120         76.67	     9.592
  11.140         75.83	     9.539
  11.160         66.67	     8.944
  11.180         68.33	     9.055
  11.200         83.33	    10.000
  11.220         82.50	     9.950
  11.240         75.00	     9.487
  11.260         61.67	     8.602
  11.280         78.33	     9.695
  11.300         66.67	     8.944
  11.320         64.17	     8.775
  11.340         80.00	     9.798
  11.360         88.33	    10.296
  11.380         62.50	     8.660
  11.400         74.17	     9.434
  11.420         75.00	     9.487
  11.440         65.83	     8.888
  11.460         60.83	     8.544
  11.480         72.50	     9.327
  11.500         79.17	     9.747
  11.520         66.67	     8.944
  11.540         70.83	     9.220
  11.560         77.50	     9.644
  11.580         77.50	     9.644
  11.600         61.67	     8.602
  11.620         82.50	     9.950
  11.640         78.33	     9.695
  11.660         73.33	     9.381
  11.680         70.83	     9.220
  11.700         88.33	    10.296
  11.720         95.83	    10.724
  11.740         73.33	     9.381
  11.760         76.67	     9.592
  11.780         89.17	    10.344
  11.800         95.00	    10.677
  11.820         75.00	     9.487
  11.840         72.50	     9.327
  11.860         88.33	    10.296
  11.880         83.33	    10.000
  11.900         81.67	     9.899
  11.920         92.50	    10.536
  11.940         72.50	     9.327
  11.960         77.50	     9.644
  11.980        105.00	    11.225
  12.000         77.50	     9.644
  12.020         95.00	    10.677
  12.040         89.17	    10.344
  12.060        105.83	    11.269
  12.080         94.17	    10.630
  12.100        101.67	    11.045
  12.120        101.67	    11.045
  12.140        121.67	    12.083
  12.160        138.33	    12.884
  12.180        150.00	    13.416
  12.200        193.33	    15.232
  12.220        200.83	    15.524
  12.240        245.00	    17.146
  12.260        369.17	    21.048
  12.280        510.83	    24.759
  12.300        626.67	    27.423
  12.320        764.17	    30.282
  12.340        771.67	    30.430
  12.360        815.00	    31.273
  12.380        612.50	    27.111
  12.400        428.33	    22.672
  12.420        308.33	    19.235
  12.440        295.00	    18.815
  12.460        275.00	    18.166
  12.480        283.33	    18.439
  12.500        283.33	    18.439
  12.520        305.00	    19.131
  12.540        324.17	    19.723
  12.560        339.17	    20.174
  12.580        405.00	    22.045
  12.600        402.50	    21.977
  12.620        471.67	    23.791
  12.640        517.50	    24.920
  12.660        473.33	    23.833
  12.680        370.83	    21.095
  12.700        282.50	    18.412
  12.720        195.00	    15.297
  12.740        148.33	    13.342
  12.760        116.67	    11.832
  12.780         94.17	    10.630
  12.800         88.33	    10.296
  12.820         85.00	    10.100
  12.840         90.00	    10.392
  12.860        102.50	    11.091
  12.880         75.83	     9.539
  12.900         79.17	     9.747
  12.920         80.83	     9.849
  12.940         64.17	     8.775
  12.960         74.17	     9.434
  12.980         78.33	     9.695
  13.000         76.67	     9.592
  13.020         66.67	     8.944
  13.040         60.00	     8.485
  13.060         65.00	     8.832
  13.080         81.67	     9.899
  13.100         71.67	     9.274
  13.120         56.67	     8.246
  13.140         65.00	     8.832
  13.160         53.33	     8.000
  13.180         81.67	     9.899
  13.200         80.83	     9.849
  13.220         82.50	     9.950
  13.240         65.83	     8.888
  13.260         60.00	     8.485
  13.280         60.83	     8.544
  13.300         55.00	     8.124
  13.320         45.00	     7.348
  13.340         60.83	     8.544
  13.360         50.00	     7.746
  13.380         60.00	     8.485
  13.400         48.33	     7.616
  13.420         65.00	     8.832
  13.440         62.50	     8.660
  13.460         55.83	     8.185
  13.480         60.83	     8.544
  13.500         66.67	     8.944
  13.520         70.83	     9.220
  13.540         72.50	     9.327
  13.560         67.50	     9.000
  13.580         70.83	     9.220
  13.600         64.17	     8.775
  13.620         65.00	     8.832
  13.640         62.50	     8.660
  13.660         58.33	     8.367
  13.680         82.50	     9.950
  13.700         55.83	     8.185
  13.720         65.00	     8.832
  13.740         69.17	     9.110
  13.760         74.17	     9.434
  13.780         75.83	     9.539
  13.800         64.17	     8.775
  13.820         62.50	     8.660
  13.840         59.17	     8.426
  13.860         70.00	     9.165
  13.880         69.17	     9.110
  13.900         65.00	     8.832
  13.920         65.83	     8.888
  13.940         67.50	     9.000
  13.960         87.50	    10.247
  13.980         84.17	    10.050
  14.000         92.50	    10.536
  14.020         80.83	     9.849
  14.040         85.00	    10.100
  14.060         66.67	     8.944
  14.080         60.00	     8.485
  14.100         67.50	     9.000
  14.120         55.83	     8.185
  14.140         56.67	     8.246
  14.160         74.17	     9.434
  14.180         55.83	     8.185
  14.200         68.33	     9.055
  14.220         60.00	     8.485
  14.240         60.83	     8.544
  14.260         55.83	     8.185
  14.280         60.83	     8.544
  14.300         60.00	     8.485
  14.320         55.00	     8.124
  14.340         45.00	     7.348
  14.360         58.33	     8.367
  14.380         59.17	     8.426
  14.400         43.33	     7.211
