
Filename:
	C:\Program Files\Thermo Electron\WinXRD\Datafiles\F_HERMAN\GEO\GG_21_SFT.raw

File Created:
	October 14, 2020 - 05:13 AM

Specimen Id:
	GG_21_SFT

Specimen Name:
	

Specimen Description:
	

Comment:
Scan Type: 2Theta Scan
Start Angle: 3 deg.
Stop Angle: 65 deg.
Num Points: 3101
Step Size: 0.02 deg.
Scan Rate: 1.000000
Scan Mode: Continuous
Wavelength: 1.540562
\Kalpha1: 1.540562	\Kalpha2: 1.544390	\Kbeta: 1.392218

Optics:
		Detector:
			 Type: Fixed Slits
		Tube: 
			 Type: Fixed Slits


Datas:
 Pos [deg]       Rate [CPS]      ESD [-]

Range 1 ---> Iteration 1
   3.000        322.50	    19.672
   3.020        344.17	    20.322
   3.040        386.67	    21.541
   3.060        366.67	    20.976
   3.080        375.00	    21.213
   3.100        356.67	    20.688
   3.120        343.33	    20.298
   3.140        340.00	    20.199
   3.160        355.83	    20.664
   3.180        321.67	    19.647
   3.200        366.67	    20.976
   3.220        335.83	    20.075
   3.240        363.33	    20.881
   3.260        320.83	    19.621
   3.280        330.00	    19.900
   3.300        331.67	    19.950
   3.320        332.50	    19.975
   3.340        300.00	    18.974
   3.360        324.17	    19.723
   3.380        330.83	    19.925
   3.400        308.33	    19.235
   3.420        335.83	    20.075
   3.440        299.17	    18.947
   3.460        292.50	    18.735
   3.480        334.17	    20.025
   3.500        323.33	    19.698
   3.520        312.50	    19.365
   3.540        318.33	    19.545
   3.560        320.83	    19.621
   3.580        300.83	    19.000
   3.600        302.50	    19.053
   3.620        289.17	    18.628
   3.640        277.50	    18.248
   3.660        283.33	    18.439
   3.680        267.50	    17.916
   3.700        309.17	    19.261
   3.720        303.33	    19.079
   3.740        295.83	    18.841
   3.760        281.67	    18.385
   3.780        280.00	    18.330
   3.800        282.50	    18.412
   3.820        263.33	    17.776
   3.840        247.50	    17.234
   3.860        288.33	    18.601
   3.880        273.33	    18.111
   3.900        255.00	    17.493
   3.920        280.00	    18.330
   3.940        254.17	    17.464
   3.960        278.33	    18.276
   3.980        271.67	    18.055
   4.000        266.67	    17.889
   4.020        278.33	    18.276
   4.040        245.83	    17.176
   4.060        270.83	    18.028
   4.080        276.67	    18.221
   4.100        256.67	    17.550
   4.120        234.17	    16.763
   4.140        261.67	    17.720
   4.160        283.33	    18.439
   4.180        235.00	    16.793
   4.200        256.67	    17.550
   4.220        255.00	    17.493
   4.240        218.33	    16.186
   4.260        227.50	    16.523
   4.280        255.00	    17.493
   4.300        238.33	    16.912
   4.320        216.67	    16.125
   4.340        210.83	    15.906
   4.360        233.33	    16.733
   4.380        233.33	    16.733
   4.400        252.50	    17.407
   4.420        229.17	    16.583
   4.440        237.50	    16.882
   4.460        246.67	    17.205
   4.480        231.67	    16.673
   4.500        206.67	    15.748
   4.520        224.17	    16.401
   4.540        230.83	    16.643
   4.560        221.67	    16.310
   4.580        209.17	    15.843
   4.600        228.33	    16.553
   4.620        221.67	    16.310
   4.640        215.83	    16.093
   4.660        213.33	    16.000
   4.680        215.00	    16.062
   4.700        226.67	    16.492
   4.720        191.67	    15.166
   4.740        196.67	    15.362
   4.760        230.83	    16.643
   4.780        212.50	    15.969
   4.800        222.50	    16.340
   4.820        188.33	    15.033
   4.840        200.00	    15.492
   4.860        195.00	    15.297
   4.880        193.33	    15.232
   4.900        199.17	    15.460
   4.920        229.17	    16.583
   4.940        192.50	    15.199
   4.960        192.50	    15.199
   4.980        193.33	    15.232
   5.000        215.83	    16.093
   5.020        195.83	    15.330
   5.040        182.50	    14.799
   5.060        189.17	    15.067
   5.080        204.17	    15.652
   5.100        190.83	    15.133
   5.120        188.33	    15.033
   5.140        195.00	    15.297
   5.160        183.33	    14.832
   5.180        200.83	    15.524
   5.200        193.33	    15.232
   5.220        208.33	    15.811
   5.240        174.17	    14.457
   5.260        198.33	    15.427
   5.280        189.17	    15.067
   5.300        173.33	    14.422
   5.320        187.50	    15.000
   5.340        155.83	    13.675
   5.360        188.33	    15.033
   5.380        181.67	    14.765
   5.400        151.67	    13.491
   5.420        171.67	    14.353
   5.440        197.50	    15.395
   5.460        190.83	    15.133
   5.480        157.50	    13.748
   5.500        172.50	    14.387
   5.520        190.83	    15.133
   5.540        185.83	    14.933
   5.560        155.83	    13.675
   5.580        174.17	    14.457
   5.600        173.33	    14.422
   5.620        174.17	    14.457
   5.640        190.00	    15.100
   5.660        160.00	    13.856
   5.680        152.50	    13.528
   5.700        174.17	    14.457
   5.720        183.33	    14.832
   5.740        190.00	    15.100
   5.760        189.17	    15.067
   5.780        161.67	    13.928
   5.800        197.50	    15.395
   5.820        167.50	    14.177
   5.840        187.50	    15.000
   5.860        185.00	    14.900
   5.880        185.00	    14.900
   5.900        175.00	    14.491
   5.920        179.17	    14.663
   5.940        190.83	    15.133
   5.960        218.33	    16.186
   5.980        190.00	    15.100
   6.000        183.33	    14.832
   6.020        219.17	    16.217
   6.040        211.67	    15.937
   6.060        224.17	    16.401
   6.080        226.67	    16.492
   6.100        257.50	    17.578
   6.120        236.67	    16.852
   6.140        233.33	    16.733
   6.160        216.67	    16.125
   6.180        216.67	    16.125
   6.200        237.50	    16.882
   6.220        231.67	    16.673
   6.240        288.33	    18.601
   6.260        244.17	    17.117
   6.280        251.67	    17.378
   6.300        245.83	    17.176
   6.320        250.00	    17.321
   6.340        253.33	    17.436
   6.360        249.17	    17.292
   6.380        226.67	    16.492
   6.400        226.67	    16.492
   6.420        190.00	    15.100
   6.440        200.00	    15.492
   6.460        172.50	    14.387
   6.480        170.83	    14.318
   6.500        153.33	    13.565
   6.520        156.67	    13.711
   6.540        172.50	    14.387
   6.560        161.67	    13.928
   6.580        150.83	    13.454
   6.600        156.67	    13.711
   6.620        144.17	    13.153
   6.640        135.00	    12.728
   6.660        141.67	    13.038
   6.680        156.67	    13.711
   6.700        143.33	    13.115
   6.720        156.67	    13.711
   6.740        141.67	    13.038
   6.760        155.00	    13.638
   6.780        157.50	    13.748
   6.800        132.50	    12.610
   6.820        136.67	    12.806
   6.840        160.00	    13.856
   6.860        139.17	    12.923
   6.880        141.67	    13.038
   6.900        137.50	    12.845
   6.920        149.17	    13.379
   6.940        165.00	    14.071
   6.960        135.83	    12.767
   6.980        139.17	    12.923
   7.000        140.00	    12.961
   7.020        140.83	    13.000
   7.040        152.50	    13.528
   7.060        163.33	    14.000
   7.080        125.83	    12.288
   7.100        127.50	    12.369
   7.120        136.67	    12.806
   7.140        125.00	    12.247
   7.160        130.00	    12.490
   7.180        144.17	    13.153
   7.200        145.83	    13.229
   7.220        140.83	    13.000
   7.240        141.67	    13.038
   7.260        126.67	    12.329
   7.280        143.33	    13.115
   7.300        137.50	    12.845
   7.320        111.67	    11.576
   7.340        143.33	    13.115
   7.360        127.50	    12.369
   7.380        150.00	    13.416
   7.400        143.33	    13.115
   7.420        127.50	    12.369
   7.440        127.50	    12.369
   7.460        132.50	    12.610
   7.480        130.00	    12.490
   7.500        132.50	    12.610
   7.520        116.67	    11.832
   7.540        145.83	    13.229
   7.560        137.50	    12.845
   7.580        136.67	    12.806
   7.600        144.17	    13.153
   7.620        112.50	    11.619
   7.640        130.00	    12.490
   7.660        125.83	    12.288
   7.680        126.67	    12.329
   7.700        110.00	    11.489
   7.720        130.83	    12.530
   7.740        109.17	    11.446
   7.760        125.83	    12.288
   7.780        115.83	    11.790
   7.800        137.50	    12.845
   7.820        125.00	    12.247
   7.840        120.00	    12.000
   7.860        123.33	    12.166
   7.880        125.83	    12.288
   7.900        134.17	    12.689
   7.920        117.50	    11.874
   7.940        122.50	    12.124
   7.960        130.83	    12.530
   7.980        117.50	    11.874
   8.000        115.00	    11.747
   8.020        119.17	    11.958
   8.040        110.00	    11.489
   8.060        119.17	    11.958
   8.080        140.83	    13.000
   8.100        123.33	    12.166
   8.120        133.33	    12.649
   8.140        129.17	    12.450
   8.160        122.50	    12.124
   8.180        123.33	    12.166
   8.200        128.33	    12.410
   8.220        116.67	    11.832
   8.240        125.00	    12.247
   8.260        133.33	    12.649
   8.280        110.00	    11.489
   8.300        132.50	    12.610
   8.320        130.00	    12.490
   8.340        120.00	    12.000
   8.360        145.00	    13.191
   8.380        126.67	    12.329
   8.400        139.17	    12.923
   8.420        137.50	    12.845
   8.440        135.83	    12.767
   8.460        127.50	    12.369
   8.480        148.33	    13.342
   8.500        153.33	    13.565
   8.520        156.67	    13.711
   8.540        140.83	    13.000
   8.560        170.00	    14.283
   8.580        156.67	    13.711
   8.600        157.50	    13.748
   8.620        170.00	    14.283
   8.640        204.17	    15.652
   8.660        147.50	    13.304
   8.680        196.67	    15.362
   8.700        205.00	    15.684
   8.720        209.17	    15.843
   8.740        196.67	    15.362
   8.760        206.67	    15.748
   8.780        235.00	    16.793
   8.800        276.67	    18.221
   8.820        287.50	    18.574
   8.840        276.67	    18.221
   8.860        311.67	    19.339
   8.880        357.50	    20.712
   8.900        373.33	    21.166
   8.920        448.33	    23.195
   8.940        483.33	    24.083
   8.960        487.50	    24.187
   8.980        457.50	    23.431
   9.000        479.17	    23.979
   9.020        410.00	    22.181
   9.040        320.00	    19.596
   9.060        273.33	    18.111
   9.080        232.50	    16.703
   9.100        217.50	    16.155
   9.120        150.00	    13.416
   9.140        163.33	    14.000
   9.160        134.17	    12.689
   9.180        144.17	    13.153
   9.200        126.67	    12.329
   9.220        141.67	    13.038
   9.240        130.83	    12.530
   9.260        169.17	    14.248
   9.280        128.33	    12.410
   9.300        130.00	    12.490
   9.320         97.50	    10.817
   9.340        111.67	    11.576
   9.360        116.67	    11.832
   9.380        110.83	    11.533
   9.400        115.00	    11.747
   9.420        110.00	    11.489
   9.440        121.67	    12.083
   9.460        128.33	    12.410
   9.480        140.00	    12.961
   9.500        128.33	    12.410
   9.520        158.33	    13.784
   9.540        157.50	    13.748
   9.560        152.50	    13.528
   9.580        173.33	    14.422
   9.600        123.33	    12.166
   9.620        137.50	    12.845
   9.640        118.33	    11.916
   9.660         90.83	    10.440
   9.680        111.67	    11.576
   9.700         97.50	    10.817
   9.720         82.50	     9.950
   9.740        105.00	    11.225
   9.760         93.33	    10.583
   9.780         98.33	    10.863
   9.800        110.00	    11.489
   9.820         75.83	     9.539
   9.840         92.50	    10.536
   9.860         89.17	    10.344
   9.880        100.83	    11.000
   9.900         80.83	     9.849
   9.920        110.00	    11.489
   9.940         99.17	    10.909
   9.960         94.17	    10.630
   9.980         88.33	    10.296
  10.000         95.83	    10.724
  10.020         79.17	     9.747
  10.040         90.00	    10.392
  10.060         81.67	     9.899
  10.080         85.00	    10.100
  10.100         95.83	    10.724
  10.120         88.33	    10.296
  10.140         88.33	    10.296
  10.160         90.83	    10.440
  10.180         90.83	    10.440
  10.200         81.67	     9.899
  10.220         78.33	     9.695
  10.240         80.00	     9.798
  10.260         78.33	     9.695
  10.280         90.00	    10.392
  10.300         88.33	    10.296
  10.320         77.50	     9.644
  10.340         72.50	     9.327
  10.360         96.67	    10.770
  10.380         77.50	     9.644
  10.400         99.17	    10.909
  10.420         95.83	    10.724
  10.440         90.00	    10.392
  10.460         93.33	    10.583
  10.480         95.83	    10.724
  10.500        110.00	    11.489
  10.520        125.83	    12.288
  10.540        131.67	    12.570
  10.560        138.33	    12.884
  10.580        171.67	    14.353
  10.600        162.50	    13.964
  10.620        162.50	    13.964
  10.640        160.83	    13.892
  10.660        142.50	    13.077
  10.680        130.00	    12.490
  10.700        109.17	    11.446
  10.720         96.67	    10.770
  10.740        114.17	    11.705
  10.760        100.83	    11.000
  10.780         86.67	    10.198
  10.800         90.83	    10.440
  10.820         79.17	     9.747
  10.840         68.33	     9.055
  10.860         72.50	     9.327
  10.880         87.50	    10.247
  10.900         77.50	     9.644
  10.920         86.67	    10.198
  10.940         73.33	     9.381
  10.960         76.67	     9.592
  10.980         72.50	     9.327
  11.000         79.17	     9.747
  11.020         92.50	    10.536
  11.040         90.00	    10.392
  11.060         73.33	     9.381
  11.080         67.50	     9.000
  11.100         89.17	    10.344
  11.120         79.17	     9.747
  11.140         73.33	     9.381
  11.160         82.50	     9.950
  11.180         71.67	     9.274
  11.200         85.00	    10.100
  11.220         80.00	     9.798
  11.240         75.00	     9.487
  11.260         80.00	     9.798
  11.280         73.33	     9.381
  11.300         77.50	     9.644
  11.320         72.50	     9.327
  11.340         90.00	    10.392
  11.360         80.00	     9.798
  11.380         86.67	    10.198
  11.400         83.33	    10.000
  11.420         73.33	     9.381
  11.440         71.67	     9.274
  11.460         76.67	     9.592
  11.480         71.67	     9.274
  11.500         76.67	     9.592
  11.520         67.50	     9.000
  11.540         85.83	    10.149
  11.560         83.33	    10.000
  11.580         90.83	    10.440
  11.600         87.50	    10.247
  11.620         78.33	     9.695
  11.640         86.67	    10.198
  11.660         85.83	    10.149
  11.680         82.50	     9.950
  11.700         81.67	     9.899
  11.720         84.17	    10.050
  11.740         85.83	    10.149
  11.760         92.50	    10.536
  11.780        102.50	    11.091
  11.800         87.50	    10.247
  11.820        109.17	    11.446
  11.840         97.50	    10.817
  11.860         89.17	    10.344
  11.880         75.00	     9.487
  11.900         89.17	    10.344
  11.920        101.67	    11.045
  11.940         90.83	    10.440
  11.960        118.33	    11.916
  11.980         96.67	    10.770
  12.000        102.50	    11.091
  12.020        125.83	    12.288
  12.040        105.83	    11.269
  12.060        111.67	    11.576
  12.080        120.00	    12.000
  12.100        137.50	    12.845
  12.120        175.00	    14.491
  12.140        188.33	    15.033
  12.160        210.83	    15.906
  12.180        292.50	    18.735
  12.200        342.50	    20.273
  12.220        460.00	    23.495
  12.240        641.67	    27.749
  12.260        801.67	    31.016
  12.280        880.83	    32.512
  12.300        871.67	    32.342
  12.320        760.83	    30.216
  12.340        659.17	    28.125
  12.360        522.50	    25.040
  12.380        421.67	    22.494
  12.400        376.67	    21.260
  12.420        376.67	    21.260
  12.440        392.50	    21.703
  12.460        417.50	    22.383
  12.480        398.33	    21.863
  12.500        422.50	    22.517
  12.520        455.00	    23.367
  12.540        501.67	    24.536
  12.560        645.83	    27.839
  12.580        610.83	    27.074
  12.600        607.50	    27.000
  12.620        480.83	    24.021
  12.640        400.00	    21.909
  12.660        316.67	    19.494
  12.680        270.00	    18.000
  12.700        200.83	    15.524
  12.720        146.67	    13.266
  12.740        147.50	    13.304
  12.760        129.17	    12.450
  12.780        110.00	    11.489
  12.800        110.83	    11.533
  12.820        101.67	    11.045
  12.840         89.17	    10.344
  12.860         96.67	    10.770
  12.880         84.17	    10.050
  12.900         90.83	    10.440
  12.920         74.17	     9.434
  12.940         78.33	     9.695
  12.960         76.67	     9.592
  12.980         75.00	     9.487
  13.000         76.67	     9.592
  13.020         75.83	     9.539
  13.040         70.00	     9.165
  13.060         89.17	    10.344
  13.080         79.17	     9.747
  13.100         81.67	     9.899
  13.120         74.17	     9.434
  13.140         87.50	    10.247
  13.160         77.50	     9.644
  13.180         70.00	     9.165
  13.200         85.00	    10.100
  13.220         74.17	     9.434
  13.240         54.17	     8.062
  13.260         60.83	     8.544
  13.280         65.83	     8.888
  13.300         66.67	     8.944
  13.320         65.00	     8.832
  13.340         63.33	     8.718
  13.360         74.17	     9.434
  13.380         70.83	     9.220
  13.400         70.83	     9.220
  13.420         68.33	     9.055
  13.440         75.83	     9.539
  13.460         55.00	     8.124
  13.480         73.33	     9.381
  13.500         67.50	     9.000
  13.520         60.83	     8.544
  13.540         67.50	     9.000
  13.560         73.33	     9.381
  13.580         73.33	     9.381
  13.600         70.00	     9.165
  13.620         72.50	     9.327
  13.640         55.83	     8.185
  13.660         77.50	     9.644
  13.680         63.33	     8.718
  13.700         63.33	     8.718
  13.720         80.83	     9.849
  13.740         79.17	     9.747
  13.760         59.17	     8.426
  13.780         69.17	     9.110
  13.800         67.50	     9.000
  13.820         69.17	     9.110
  13.840         75.00	     9.487
  13.860         84.17	    10.050
  13.880         72.50	     9.327
  13.900         78.33	     9.695
  13.920         81.67	     9.899
  13.940        115.00	    11.747
  13.960         75.83	     9.539
  13.980         81.67	     9.899
  14.000         83.33	    10.000
  14.020         79.17	     9.747
  14.040         66.67	     8.944
  14.060         60.83	     8.544
  14.080         58.33	     8.367
  14.100         59.17	     8.426
  14.120         55.83	     8.185
  14.140         61.67	     8.602
  14.160         60.83	     8.544
  14.180         50.00	     7.746
  14.200         51.67	     7.874
  14.220         55.83	     8.185
  14.240         54.17	     8.062
  14.260         65.83	     8.888
  14.280         53.33	     8.000
  14.300         60.00	     8.485
  14.320         61.67	     8.602
  14.340         43.33	     7.211
  14.360         66.67	     8.944
  14.380         45.00	     7.348
  14.400         52.50	     7.937
