
Filename:
	C:\Program Files\Thermo Electron\WinXRD\Datafiles\F_HERMAN\GEO\GG_20_SFT.raw

File Created:
	October 14, 2020 - 04:10 AM

Specimen Id:
	GG_20_SFT

Specimen Name:
	

Specimen Description:
	

Comment:
Scan Type: 2Theta Scan
Start Angle: 3 deg.
Stop Angle: 65 deg.
Num Points: 3101
Step Size: 0.02 deg.
Scan Rate: 1.000000
Scan Mode: Continuous
Wavelength: 1.540562
\Kalpha1: 1.540562	\Kalpha2: 1.544390	\Kbeta: 1.392218

Optics:
		Detector:
			 Type: Fixed Slits
		Tube: 
			 Type: Fixed Slits


Datas:
 Pos [deg]       Rate [CPS]      ESD [-]

Range 1 ---> Iteration 1
   3.000        350.83	    20.518
   3.020        362.50	    20.857
   3.040        362.50	    20.857
   3.060        399.17	    21.886
   3.080        362.50	    20.857
   3.100        357.50	    20.712
   3.120        375.83	    21.237
   3.140        329.17	    19.875
   3.160        358.33	    20.736
   3.180        329.17	    19.875
   3.200        355.83	    20.664
   3.220        343.33	    20.298
   3.240        353.33	    20.591
   3.260        345.00	    20.347
   3.280        330.83	    19.925
   3.300        358.33	    20.736
   3.320        340.00	    20.199
   3.340        301.67	    19.026
   3.360        345.83	    20.372
   3.380        336.67	    20.100
   3.400        320.83	    19.621
   3.420        321.67	    19.647
   3.440        321.67	    19.647
   3.460        293.33	    18.762
   3.480        320.83	    19.621
   3.500        310.83	    19.313
   3.520        290.83	    18.682
   3.540        296.67	    18.868
   3.560        298.33	    18.921
   3.580        298.33	    18.921
   3.600        307.50	    19.209
   3.620        261.67	    17.720
   3.640        297.50	    18.894
   3.660        275.00	    18.166
   3.680        284.17	    18.466
   3.700        250.83	    17.349
   3.720        300.00	    18.974
   3.740        277.50	    18.248
   3.760        290.83	    18.682
   3.780        260.00	    17.664
   3.800        241.67	    17.029
   3.820        284.17	    18.466
   3.840        244.17	    17.117
   3.860        279.17	    18.303
   3.880        265.00	    17.833
   3.900        274.17	    18.138
   3.920        249.17	    17.292
   3.940        275.83	    18.193
   3.960        255.83	    17.521
   3.980        255.00	    17.493
   4.000        252.50	    17.407
   4.020        262.50	    17.748
   4.040        235.83	    16.823
   4.060        258.33	    17.607
   4.080        234.17	    16.763
   4.100        236.67	    16.852
   4.120        250.83	    17.349
   4.140        220.00	    16.248
   4.160        254.17	    17.464
   4.180        257.50	    17.578
   4.200        235.00	    16.793
   4.220        237.50	    16.882
   4.240        217.50	    16.155
   4.260        252.50	    17.407
   4.280        220.83	    16.279
   4.300        239.17	    16.941
   4.320        229.17	    16.583
   4.340        202.50	    15.588
   4.360        243.33	    17.088
   4.380        233.33	    16.733
   4.400        248.33	    17.263
   4.420        205.83	    15.716
   4.440        247.50	    17.234
   4.460        200.00	    15.492
   4.480        196.67	    15.362
   4.500        209.17	    15.843
   4.520        232.50	    16.703
   4.540        221.67	    16.310
   4.560        216.67	    16.125
   4.580        201.67	    15.556
   4.600        217.50	    16.155
   4.620        220.00	    16.248
   4.640        188.33	    15.033
   4.660        188.33	    15.033
   4.680        223.33	    16.371
   4.700        190.00	    15.100
   4.720        190.83	    15.133
   4.740        210.00	    15.875
   4.760        212.50	    15.969
   4.780        163.33	    14.000
   4.800        195.00	    15.297
   4.820        195.83	    15.330
   4.840        205.83	    15.716
   4.860        187.50	    15.000
   4.880        189.17	    15.067
   4.900        220.83	    16.279
   4.920        215.00	    16.062
   4.940        199.17	    15.460
   4.960        183.33	    14.832
   4.980        197.50	    15.395
   5.000        177.50	    14.595
   5.020        194.17	    15.264
   5.040        203.33	    15.620
   5.060        192.50	    15.199
   5.080        204.17	    15.652
   5.100        186.67	    14.967
   5.120        200.83	    15.524
   5.140        184.17	    14.866
   5.160        178.33	    14.629
   5.180        161.67	    13.928
   5.200        178.33	    14.629
   5.220        180.00	    14.697
   5.240        190.00	    15.100
   5.260        162.50	    13.964
   5.280        165.83	    14.107
   5.300        184.17	    14.866
   5.320        209.17	    15.843
   5.340        179.17	    14.663
   5.360        182.50	    14.799
   5.380        175.83	    14.526
   5.400        159.17	    13.820
   5.420        154.17	    13.601
   5.440        183.33	    14.832
   5.460        178.33	    14.629
   5.480        181.67	    14.765
   5.500        172.50	    14.387
   5.520        193.33	    15.232
   5.540        177.50	    14.595
   5.560        166.67	    14.142
   5.580        215.00	    16.062
   5.600        186.67	    14.967
   5.620        168.33	    14.213
   5.640        169.17	    14.248
   5.660        181.67	    14.765
   5.680        202.50	    15.588
   5.700        175.00	    14.491
   5.720        195.83	    15.330
   5.740        180.00	    14.697
   5.760        189.17	    15.067
   5.780        187.50	    15.000
   5.800        200.83	    15.524
   5.820        225.83	    16.462
   5.840        245.83	    17.176
   5.860        229.17	    16.583
   5.880        259.17	    17.635
   5.900        306.67	    19.183
   5.920        285.83	    18.520
   5.940        276.67	    18.221
   5.960        310.00	    19.287
   5.980        293.33	    18.762
   6.000        270.00	    18.000
   6.020        302.50	    19.053
   6.040        330.83	    19.925
   6.060        302.50	    19.053
   6.080        322.50	    19.672
   6.100        315.00	    19.442
   6.120        323.33	    19.698
   6.140        329.17	    19.875
   6.160        322.50	    19.672
   6.180        296.67	    18.868
   6.200        261.67	    17.720
   6.220        260.00	    17.664
   6.240        264.17	    17.804
   6.260        294.17	    18.788
   6.280        285.83	    18.520
   6.300        300.83	    19.000
   6.320        300.83	    19.000
   6.340        235.00	    16.793
   6.360        215.83	    16.093
   6.380        215.83	    16.093
   6.400        189.17	    15.067
   6.420        189.17	    15.067
   6.440        173.33	    14.422
   6.460        185.00	    14.900
   6.480        181.67	    14.765
   6.500        172.50	    14.387
   6.520        174.17	    14.457
   6.540        161.67	    13.928
   6.560        166.67	    14.142
   6.580        174.17	    14.457
   6.600        165.83	    14.107
   6.620        145.83	    13.229
   6.640        163.33	    14.000
   6.660        160.83	    13.892
   6.680        163.33	    14.000
   6.700        178.33	    14.629
   6.720        168.33	    14.213
   6.740        167.50	    14.177
   6.760        155.00	    13.638
   6.780        170.00	    14.283
   6.800        160.00	    13.856
   6.820        155.00	    13.638
   6.840        156.67	    13.711
   6.860        143.33	    13.115
   6.880        153.33	    13.565
   6.900        170.83	    14.318
   6.920        152.50	    13.528
   6.940        158.33	    13.784
   6.960        157.50	    13.748
   6.980        165.00	    14.071
   7.000        140.00	    12.961
   7.020        167.50	    14.177
   7.040        155.00	    13.638
   7.060        145.83	    13.229
   7.080        151.67	    13.491
   7.100        161.67	    13.928
   7.120        175.83	    14.526
   7.140        138.33	    12.884
   7.160        158.33	    13.784
   7.180        151.67	    13.491
   7.200        176.67	    14.560
   7.220        145.83	    13.229
   7.240        166.67	    14.142
   7.260        155.00	    13.638
   7.280        150.83	    13.454
   7.300        152.50	    13.528
   7.320        161.67	    13.928
   7.340        138.33	    12.884
   7.360        127.50	    12.369
   7.380        145.83	    13.229
   7.400        160.00	    13.856
   7.420        147.50	    13.304
   7.440        156.67	    13.711
   7.460        133.33	    12.649
   7.480        145.00	    13.191
   7.500        130.83	    12.530
   7.520        154.17	    13.601
   7.540        144.17	    13.153
   7.560        140.83	    13.000
   7.580        148.33	    13.342
   7.600        152.50	    13.528
   7.620        145.00	    13.191
   7.640        142.50	    13.077
   7.660        150.83	    13.454
   7.680        164.17	    14.036
   7.700        130.00	    12.490
   7.720        150.00	    13.416
   7.740        159.17	    13.820
   7.760        179.17	    14.663
   7.780        160.00	    13.856
   7.800        154.17	    13.601
   7.820        130.83	    12.530
   7.840        147.50	    13.304
   7.860        161.67	    13.928
   7.880        176.67	    14.560
   7.900        150.00	    13.416
   7.920        143.33	    13.115
   7.940        162.50	    13.964
   7.960        179.17	    14.663
   7.980        170.83	    14.318
   8.000        161.67	    13.928
   8.020        172.50	    14.387
   8.040        205.00	    15.684
   8.060        188.33	    15.033
   8.080        162.50	    13.964
   8.100        191.67	    15.166
   8.120        204.17	    15.652
   8.140        180.00	    14.697
   8.160        189.17	    15.067
   8.180        211.67	    15.937
   8.200        215.83	    16.093
   8.220        196.67	    15.362
   8.240        194.17	    15.264
   8.260        225.83	    16.462
   8.280        235.83	    16.823
   8.300        229.17	    16.583
   8.320        249.17	    17.292
   8.340        286.67	    18.547
   8.360        320.00	    19.596
   8.380        368.33	    21.024
   8.400        351.67	    20.543
   8.420        290.83	    18.682
   8.440        267.50	    17.916
   8.460        203.33	    15.620
   8.480        183.33	    14.832
   8.500        198.33	    15.427
   8.520        212.50	    15.969
   8.540        195.83	    15.330
   8.560        190.83	    15.133
   8.580        220.83	    16.279
   8.600        229.17	    16.583
   8.620        235.00	    16.793
   8.640        195.83	    15.330
   8.660        220.00	    16.248
   8.680        227.50	    16.523
   8.700        239.17	    16.941
   8.720        255.00	    17.493
   8.740        267.50	    17.916
   8.760        283.33	    18.439
   8.780        307.50	    19.209
   8.800        325.00	    19.748
   8.820        308.33	    19.235
   8.840        351.67	    20.543
   8.860        419.17	    22.428
   8.880        484.17	    24.104
   8.900        552.50	    25.749
   8.920        685.83	    28.688
   8.940        672.50	    28.408
   8.960        641.67	    27.749
   8.980        482.50	    24.062
   9.000        332.50	    19.975
   9.020        238.33	    16.912
   9.040        195.83	    15.330
   9.060        200.83	    15.524
   9.080        168.33	    14.213
   9.100        166.67	    14.142
   9.120        142.50	    13.077
   9.140        160.83	    13.892
   9.160        157.50	    13.748
   9.180        160.83	    13.892
   9.200        150.00	    13.416
   9.220        157.50	    13.748
   9.240        136.67	    12.806
   9.260        139.17	    12.923
   9.280        149.17	    13.379
   9.300        115.83	    11.790
   9.320        120.83	    12.042
   9.340        136.67	    12.806
   9.360        125.83	    12.288
   9.380        131.67	    12.570
   9.400        131.67	    12.570
   9.420        121.67	    12.083
   9.440        140.83	    13.000
   9.460        145.83	    13.229
   9.480        150.83	    13.454
   9.500        166.67	    14.142
   9.520        164.17	    14.036
   9.540        125.00	    12.247
   9.560        130.83	    12.530
   9.580        142.50	    13.077
   9.600        115.83	    11.790
   9.620        115.83	    11.790
   9.640        107.50	    11.358
   9.660         99.17	    10.909
   9.680         92.50	    10.536
   9.700        113.33	    11.662
   9.720        103.33	    11.136
   9.740         98.33	    10.863
   9.760        107.50	    11.358
   9.780         92.50	    10.536
   9.800        104.17	    11.180
   9.820         89.17	    10.344
   9.840        104.17	    11.180
   9.860        109.17	    11.446
   9.880         96.67	    10.770
   9.900        100.83	    11.000
   9.920        118.33	    11.916
   9.940         87.50	    10.247
   9.960         88.33	    10.296
   9.980         80.83	     9.849
  10.000        105.00	    11.225
  10.020         95.83	    10.724
  10.040         73.33	     9.381
  10.060         81.67	     9.899
  10.080         89.17	    10.344
  10.100         93.33	    10.583
  10.120         88.33	    10.296
  10.140         93.33	    10.583
  10.160         74.17	     9.434
  10.180         80.00	     9.798
  10.200         88.33	    10.296
  10.220         94.17	    10.630
  10.240         87.50	    10.247
  10.260         79.17	     9.747
  10.280         72.50	     9.327
  10.300        100.00	    10.954
  10.320         73.33	     9.381
  10.340         85.00	    10.100
  10.360        100.00	    10.954
  10.380         85.83	    10.149
  10.400         91.67	    10.488
  10.420         98.33	    10.863
  10.440        101.67	    11.045
  10.460         92.50	    10.536
  10.480        105.83	    11.269
  10.500        130.00	    12.490
  10.520        140.00	    12.961
  10.540        127.50	    12.369
  10.560        153.33	    13.565
  10.580        194.17	    15.264
  10.600        182.50	    14.799
  10.620        152.50	    13.528
  10.640        121.67	    12.083
  10.660        107.50	    11.358
  10.680        100.83	    11.000
  10.700         95.00	    10.677
  10.720         92.50	    10.536
  10.740         90.00	    10.392
  10.760         82.50	     9.950
  10.780         82.50	     9.950
  10.800         96.67	    10.770
  10.820         87.50	    10.247
  10.840         77.50	     9.644
  10.860         73.33	     9.381
  10.880         77.50	     9.644
  10.900         91.67	    10.488
  10.920         75.83	     9.539
  10.940         70.00	     9.165
  10.960         78.33	     9.695
  10.980         82.50	     9.950
  11.000         82.50	     9.950
  11.020         91.67	    10.488
  11.040         80.00	     9.798
  11.060         79.17	     9.747
  11.080         69.17	     9.110
  11.100        105.83	    11.269
  11.120         90.00	    10.392
  11.140         79.17	     9.747
  11.160         74.17	     9.434
  11.180         72.50	     9.327
  11.200         71.67	     9.274
  11.220         75.00	     9.487
  11.240         94.17	    10.630
  11.260         63.33	     8.718
  11.280         84.17	    10.050
  11.300         86.67	    10.198
  11.320         88.33	    10.296
  11.340         90.83	    10.440
  11.360         74.17	     9.434
  11.380         75.83	     9.539
  11.400         86.67	    10.198
  11.420         97.50	    10.817
  11.440         84.17	    10.050
  11.460         78.33	     9.695
  11.480         80.00	     9.798
  11.500         85.00	    10.100
  11.520         75.83	     9.539
  11.540         77.50	     9.644
  11.560         74.17	     9.434
  11.580         72.50	     9.327
  11.600         80.00	     9.798
  11.620         74.17	     9.434
  11.640         98.33	    10.863
  11.660         75.00	     9.487
  11.680         87.50	    10.247
  11.700         87.50	    10.247
  11.720         87.50	    10.247
  11.740        100.83	    11.000
  11.760         85.00	    10.100
  11.780         96.67	    10.770
  11.800         91.67	    10.488
  11.820         88.33	    10.296
  11.840         99.17	    10.909
  11.860         79.17	     9.747
  11.880         86.67	    10.198
  11.900         95.83	    10.724
  11.920         89.17	    10.344
  11.940        102.50	    11.091
  11.960        100.83	    11.000
  11.980        109.17	    11.446
  12.000        103.33	    11.136
  12.020        133.33	    12.649
  12.040        117.50	    11.874
  12.060        140.83	    13.000
  12.080        150.00	    13.416
  12.100        140.00	    12.961
  12.120        162.50	    13.964
  12.140        212.50	    15.969
  12.160        250.00	    17.321
  12.180        338.33	    20.149
  12.200        473.33	    23.833
  12.220        625.00	    27.386
  12.240        811.67	    31.209
  12.260        883.33	    32.558
  12.280        740.83	    29.816
  12.300        548.33	    25.652
  12.320        338.33	    20.149
  12.340        279.17	    18.303
  12.360        266.67	    17.889
  12.380        267.50	    17.916
  12.400        331.67	    19.950
  12.420        310.00	    19.287
  12.440        292.50	    18.735
  12.460        324.17	    19.723
  12.480        304.17	    19.105
  12.500        410.00	    22.181
  12.520        480.83	    24.021
  12.540        525.83	    25.120
  12.560        547.50	    25.632
  12.580        526.67	    25.140
  12.600        371.67	    21.119
  12.620        255.83	    17.521
  12.640        182.50	    14.799
  12.660        149.17	    13.379
  12.680        110.00	    11.489
  12.700        120.83	    12.042
  12.720        102.50	    11.091
  12.740        112.50	    11.619
  12.760        105.83	    11.269
  12.780        105.83	    11.269
  12.800         94.17	    10.630
  12.820         94.17	    10.630
  12.840         99.17	    10.909
  12.860         83.33	    10.000
  12.880         79.17	     9.747
  12.900         99.17	    10.909
  12.920         78.33	     9.695
  12.940         81.67	     9.899
  12.960         80.00	     9.798
  12.980         65.83	     8.888
  13.000         70.00	     9.165
  13.020         74.17	     9.434
  13.040         66.67	     8.944
  13.060         85.00	    10.100
  13.080         66.67	     8.944
  13.100         77.50	     9.644
  13.120         76.67	     9.592
  13.140         65.83	     8.888
  13.160         61.67	     8.602
  13.180         65.00	     8.832
  13.200         70.00	     9.165
  13.220         73.33	     9.381
  13.240         77.50	     9.644
  13.260         80.00	     9.798
  13.280         81.67	     9.899
  13.300         60.00	     8.485
  13.320         54.17	     8.062
  13.340         68.33	     9.055
  13.360         69.17	     9.110
  13.380         85.83	    10.149
  13.400         85.00	    10.100
  13.420         80.83	     9.849
  13.440         82.50	     9.950
  13.460         80.83	     9.849
  13.480         63.33	     8.718
  13.500         69.17	     9.110
  13.520         60.83	     8.544
  13.540         72.50	     9.327
  13.560         59.17	     8.426
  13.580         66.67	     8.944
  13.600         73.33	     9.381
  13.620         61.67	     8.602
  13.640         61.67	     8.602
  13.660         69.17	     9.110
  13.680         70.83	     9.220
  13.700         68.33	     9.055
  13.720         69.17	     9.110
  13.740         74.17	     9.434
  13.760         53.33	     8.000
  13.780         80.83	     9.849
  13.800         63.33	     8.718
  13.820         72.50	     9.327
  13.840         71.67	     9.274
  13.860         74.17	     9.434
  13.880         87.50	    10.247
  13.900         94.17	    10.630
  13.920         93.33	    10.583
  13.940         95.00	    10.677
  13.960         88.33	    10.296
  13.980         80.00	     9.798
  14.000         74.17	     9.434
  14.020         68.33	     9.055
  14.040         73.33	     9.381
  14.060         63.33	     8.718
  14.080         85.00	    10.100
  14.100         61.67	     8.602
  14.120         69.17	     9.110
  14.140         65.83	     8.888
  14.160         62.50	     8.660
  14.180         55.83	     8.185
  14.200         60.83	     8.544
  14.220         50.83	     7.810
  14.240         68.33	     9.055
  14.260         60.83	     8.544
  14.280         61.67	     8.602
  14.300         50.00	     7.746
  14.320         46.67	     7.483
  14.340         66.67	     8.944
  14.360         50.00	     7.746
  14.380         55.00	     8.124
  14.400         63.33	     8.718
