
Filename:
	C:\Program Files\Thermo Electron\WinXRD\Datafiles\F_HERMAN\GEO\GG_22_SFT.raw

File Created:
	October 14, 2020 - 08:10 AM

Specimen Id:
	GG 22 SFT

Specimen Name:
	

Specimen Description:
	

Comment:
Scan Type: 2Theta Scan
Start Angle: 3 deg.
Stop Angle: 65 deg.
Num Points: 3101
Step Size: 0.02 deg.
Scan Rate: 1.000000
Scan Mode: Continuous
Wavelength: 1.540562
\Kalpha1: 1.540562	\Kalpha2: 1.544390	\Kbeta: 1.392218

Optics:
		Detector:
			 Type: Fixed Slits
		Tube: 
			 Type: Fixed Slits


Datas:
 Pos [deg]       Rate [CPS]      ESD [-]

Range 1 ---> Iteration 1
   3.000        346.67	    20.396
   3.020        340.00	    20.199
   3.040        366.67	    20.976
   3.060        335.00	    20.050
   3.080        342.50	    20.273
   3.100        352.50	    20.567
   3.120        312.50	    19.365
   3.140        324.17	    19.723
   3.160        352.50	    20.567
   3.180        314.17	    19.416
   3.200        351.67	    20.543
   3.220        306.67	    19.183
   3.240        339.17	    20.174
   3.260        325.00	    19.748
   3.280        333.33	    20.000
   3.300        326.67	    19.799
   3.320        318.33	    19.545
   3.340        320.00	    19.596
   3.360        324.17	    19.723
   3.380        317.50	    19.519
   3.400        334.17	    20.025
   3.420        308.33	    19.235
   3.440        315.83	    19.468
   3.460        301.67	    19.026
   3.480        305.83	    19.157
   3.500        270.83	    18.028
   3.520        289.17	    18.628
   3.540        292.50	    18.735
   3.560        323.33	    19.698
   3.580        275.00	    18.166
   3.600        312.50	    19.365
   3.620        289.17	    18.628
   3.640        273.33	    18.111
   3.660        281.67	    18.385
   3.680        285.00	    18.493
   3.700        305.83	    19.157
   3.720        274.17	    18.138
   3.740        264.17	    17.804
   3.760        265.83	    17.861
   3.780        252.50	    17.407
   3.800        276.67	    18.221
   3.820        277.50	    18.248
   3.840        296.67	    18.868
   3.860        279.17	    18.303
   3.880        254.17	    17.464
   3.900        251.67	    17.378
   3.920        241.67	    17.029
   3.940        270.83	    18.028
   3.960        250.00	    17.321
   3.980        245.00	    17.146
   4.000        241.67	    17.029
   4.020        245.00	    17.146
   4.040        253.33	    17.436
   4.060        248.33	    17.263
   4.080        264.17	    17.804
   4.100        213.33	    16.000
   4.120        242.50	    17.059
   4.140        215.00	    16.062
   4.160        242.50	    17.059
   4.180        231.67	    16.673
   4.200        225.83	    16.462
   4.220        216.67	    16.125
   4.240        261.67	    17.720
   4.260        240.00	    16.971
   4.280        215.83	    16.093
   4.300        233.33	    16.733
   4.320        220.00	    16.248
   4.340        236.67	    16.852
   4.360        215.00	    16.062
   4.380        225.83	    16.462
   4.400        216.67	    16.125
   4.420        225.83	    16.462
   4.440        233.33	    16.733
   4.460        223.33	    16.371
   4.480        198.33	    15.427
   4.500        215.83	    16.093
   4.520        211.67	    15.937
   4.540        218.33	    16.186
   4.560        205.00	    15.684
   4.580        232.50	    16.703
   4.600        186.67	    14.967
   4.620        202.50	    15.588
   4.640        230.00	    16.613
   4.660        190.83	    15.133
   4.680        212.50	    15.969
   4.700        201.67	    15.556
   4.720        175.00	    14.491
   4.740        179.17	    14.663
   4.760        214.17	    16.031
   4.780        183.33	    14.832
   4.800        178.33	    14.629
   4.820        183.33	    14.832
   4.840        177.50	    14.595
   4.860        160.83	    13.892
   4.880        190.83	    15.133
   4.900        196.67	    15.362
   4.920        175.83	    14.526
   4.940        196.67	    15.362
   4.960        195.83	    15.330
   4.980        162.50	    13.964
   5.000        195.83	    15.330
   5.020        175.83	    14.526
   5.040        182.50	    14.799
   5.060        171.67	    14.353
   5.080        170.00	    14.283
   5.100        167.50	    14.177
   5.120        178.33	    14.629
   5.140        176.67	    14.560
   5.160        174.17	    14.457
   5.180        210.83	    15.906
   5.200        170.00	    14.283
   5.220        183.33	    14.832
   5.240        195.00	    15.297
   5.260        181.67	    14.765
   5.280        163.33	    14.000
   5.300        181.67	    14.765
   5.320        161.67	    13.928
   5.340        165.83	    14.107
   5.360        188.33	    15.033
   5.380        176.67	    14.560
   5.400        185.83	    14.933
   5.420        163.33	    14.000
   5.440        181.67	    14.765
   5.460        176.67	    14.560
   5.480        182.50	    14.799
   5.500        180.83	    14.731
   5.520        170.00	    14.283
   5.540        136.67	    12.806
   5.560        160.83	    13.892
   5.580        183.33	    14.832
   5.600        168.33	    14.213
   5.620        167.50	    14.177
   5.640        150.83	    13.454
   5.660        164.17	    14.036
   5.680        175.00	    14.491
   5.700        177.50	    14.595
   5.720        171.67	    14.353
   5.740        148.33	    13.342
   5.760        184.17	    14.866
   5.780        188.33	    15.033
   5.800        171.67	    14.353
   5.820        176.67	    14.560
   5.840        174.17	    14.457
   5.860        175.00	    14.491
   5.880        189.17	    15.067
   5.900        182.50	    14.799
   5.920        202.50	    15.588
   5.940        185.83	    14.933
   5.960        197.50	    15.395
   5.980        176.67	    14.560
   6.000        210.83	    15.906
   6.020        160.00	    13.856
   6.040        244.17	    17.117
   6.060        220.83	    16.279
   6.080        230.83	    16.643
   6.100        261.67	    17.720
   6.120        308.33	    19.235
   6.140        290.83	    18.682
   6.160        312.50	    19.365
   6.180        309.17	    19.261
   6.200        284.17	    18.466
   6.220        285.83	    18.520
   6.240        275.83	    18.193
   6.260        246.67	    17.205
   6.280        281.67	    18.385
   6.300        228.33	    16.553
   6.320        267.50	    17.916
   6.340        262.50	    17.748
   6.360        270.83	    18.028
   6.380        277.50	    18.248
   6.400        315.00	    19.442
   6.420        286.67	    18.547
   6.440        271.67	    18.055
   6.460        245.83	    17.176
   6.480        243.33	    17.088
   6.500        199.17	    15.460
   6.520        175.00	    14.491
   6.540        167.50	    14.177
   6.560        170.00	    14.283
   6.580        166.67	    14.142
   6.600        172.50	    14.387
   6.620        134.17	    12.689
   6.640        165.83	    14.107
   6.660        165.83	    14.107
   6.680        143.33	    13.115
   6.700        159.17	    13.820
   6.720        154.17	    13.601
   6.740        158.33	    13.784
   6.760        124.17	    12.207
   6.780        135.83	    12.767
   6.800        150.00	    13.416
   6.820        130.83	    12.530
   6.840        125.00	    12.247
   6.860        145.83	    13.229
   6.880        149.17	    13.379
   6.900        119.17	    11.958
   6.920        151.67	    13.491
   6.940        149.17	    13.379
   6.960        137.50	    12.845
   6.980        126.67	    12.329
   7.000        115.83	    11.790
   7.020        143.33	    13.115
   7.040        125.00	    12.247
   7.060        127.50	    12.369
   7.080        165.00	    14.071
   7.100        134.17	    12.689
   7.120        126.67	    12.329
   7.140        120.00	    12.000
   7.160        127.50	    12.369
   7.180        126.67	    12.329
   7.200        137.50	    12.845
   7.220        133.33	    12.649
   7.240        134.17	    12.689
   7.260        136.67	    12.806
   7.280        132.50	    12.610
   7.300        125.83	    12.288
   7.320        120.83	    12.042
   7.340        120.00	    12.000
   7.360        124.17	    12.207
   7.380        137.50	    12.845
   7.400        145.00	    13.191
   7.420        128.33	    12.410
   7.440         96.67	    10.770
   7.460        130.83	    12.530
   7.480        109.17	    11.446
   7.500        137.50	    12.845
   7.520        111.67	    11.576
   7.540        128.33	    12.410
   7.560        129.17	    12.450
   7.580        119.17	    11.958
   7.600        133.33	    12.649
   7.620        105.00	    11.225
   7.640        115.83	    11.790
   7.660        128.33	    12.410
   7.680        129.17	    12.450
   7.700        120.00	    12.000
   7.720        102.50	    11.091
   7.740         98.33	    10.863
   7.760        133.33	    12.649
   7.780        127.50	    12.369
   7.800        117.50	    11.874
   7.820        127.50	    12.369
   7.840        105.83	    11.269
   7.860        123.33	    12.166
   7.880        109.17	    11.446
   7.900        113.33	    11.662
   7.920        120.00	    12.000
   7.940        103.33	    11.136
   7.960        120.83	    12.042
   7.980        130.00	    12.490
   8.000        117.50	    11.874
   8.020        114.17	    11.705
   8.040        120.83	    12.042
   8.060        128.33	    12.410
   8.080        114.17	    11.705
   8.100        117.50	    11.874
   8.120        120.83	    12.042
   8.140        120.00	    12.000
   8.160        110.00	    11.489
   8.180        124.17	    12.207
   8.200        133.33	    12.649
   8.220        117.50	    11.874
   8.240        122.50	    12.124
   8.260        120.83	    12.042
   8.280        101.67	    11.045
   8.300        115.00	    11.747
   8.320        113.33	    11.662
   8.340        133.33	    12.649
   8.360        118.33	    11.916
   8.380        122.50	    12.124
   8.400        126.67	    12.329
   8.420        105.83	    11.269
   8.440        110.83	    11.533
   8.460        136.67	    12.806
   8.480        138.33	    12.884
   8.500        136.67	    12.806
   8.520        139.17	    12.923
   8.540        131.67	    12.570
   8.560        156.67	    13.711
   8.580        149.17	    13.379
   8.600        138.33	    12.884
   8.620        155.83	    13.675
   8.640        146.67	    13.266
   8.660        158.33	    13.784
   8.680        179.17	    14.663
   8.700        173.33	    14.422
   8.720        161.67	    13.928
   8.740        175.00	    14.491
   8.760        174.17	    14.457
   8.780        200.83	    15.524
   8.800        179.17	    14.663
   8.820        192.50	    15.199
   8.840        199.17	    15.460
   8.860        235.00	    16.793
   8.880        230.00	    16.613
   8.900        234.17	    16.763
   8.920        235.83	    16.823
   8.940        288.33	    18.601
   8.960        308.33	    19.235
   8.980        320.00	    19.596
   9.000        389.17	    21.610
   9.020        440.00	    22.978
   9.040        543.33	    25.534
   9.060        573.33	    26.230
   9.080        570.00	    26.153
   9.100        472.50	    23.812
   9.120        345.83	    20.372
   9.140        220.83	    16.279
   9.160        214.17	    16.031
   9.180        161.67	    13.928
   9.200        155.83	    13.675
   9.220        150.83	    13.454
   9.240        137.50	    12.845
   9.260        128.33	    12.410
   9.280        135.83	    12.767
   9.300        131.67	    12.570
   9.320        142.50	    13.077
   9.340        134.17	    12.689
   9.360        129.17	    12.450
   9.380        121.67	    12.083
   9.400        115.83	    11.790
   9.420         94.17	    10.630
   9.440        115.00	    11.747
   9.460        110.00	    11.489
   9.480        111.67	    11.576
   9.500         97.50	    10.817
   9.520         91.67	    10.488
   9.540        113.33	    11.662
   9.560        115.83	    11.790
   9.580        130.83	    12.530
   9.600        160.83	    13.892
   9.620        139.17	    12.923
   9.640        175.83	    14.526
   9.660        152.50	    13.528
   9.680        130.00	    12.490
   9.700        114.17	    11.705
   9.720        104.17	    11.180
   9.740         96.67	    10.770
   9.760         86.67	    10.198
   9.780         84.17	    10.050
   9.800        104.17	    11.180
   9.820         88.33	    10.296
   9.840         75.83	     9.539
   9.860         80.00	     9.798
   9.880         82.50	     9.950
   9.900         85.83	    10.149
   9.920         85.00	    10.100
   9.940         87.50	    10.247
   9.960        105.00	    11.225
   9.980         93.33	    10.583
  10.000         93.33	    10.583
  10.020         84.17	    10.050
  10.040         86.67	    10.198
  10.060         81.67	     9.899
  10.080         88.33	    10.296
  10.100         82.50	     9.950
  10.120         81.67	     9.899
  10.140         69.17	     9.110
  10.160         74.17	     9.434
  10.180         76.67	     9.592
  10.200         73.33	     9.381
  10.220         70.00	     9.165
  10.240         62.50	     8.660
  10.260         75.00	     9.487
  10.280         83.33	    10.000
  10.300         97.50	    10.817
  10.320         83.33	    10.000
  10.340         87.50	    10.247
  10.360         77.50	     9.644
  10.380         79.17	     9.747
  10.400         74.17	     9.434
  10.420         78.33	     9.695
  10.440         74.17	     9.434
  10.460         93.33	    10.583
  10.480         80.83	     9.849
  10.500         75.00	     9.487
  10.520         78.33	     9.695
  10.540         88.33	    10.296
  10.560         82.50	     9.950
  10.580         87.50	    10.247
  10.600         96.67	    10.770
  10.620        111.67	    11.576
  10.640        148.33	    13.342
  10.660        156.67	    13.711
  10.680        188.33	    15.033
  10.700        179.17	    14.663
  10.720        169.17	    14.248
  10.740        182.50	    14.799
  10.760        130.00	    12.490
  10.780        119.17	    11.958
  10.800         87.50	    10.247
  10.820         84.17	    10.050
  10.840         70.83	     9.220
  10.860         84.17	    10.050
  10.880         82.50	     9.950
  10.900         78.33	     9.695
  10.920         90.00	    10.392
  10.940         67.50	     9.000
  10.960         75.83	     9.539
  10.980         75.00	     9.487
  11.000         62.50	     8.660
  11.020         77.50	     9.644
  11.040         72.50	     9.327
  11.060         70.83	     9.220
  11.080         60.00	     8.485
  11.100         76.67	     9.592
  11.120         70.83	     9.220
  11.140         52.50	     7.937
  11.160         85.83	    10.149
  11.180         55.00	     8.124
  11.200         60.83	     8.544
  11.220         75.00	     9.487
  11.240         88.33	    10.296
  11.260         63.33	     8.718
  11.280         70.00	     9.165
  11.300         72.50	     9.327
  11.320         80.83	     9.849
  11.340         56.67	     8.246
  11.360         75.83	     9.539
  11.380         60.83	     8.544
  11.400         57.50	     8.307
  11.420         70.00	     9.165
  11.440         62.50	     8.660
  11.460         65.00	     8.832
  11.480         66.67	     8.944
  11.500         70.00	     9.165
  11.520         67.50	     9.000
  11.540         72.50	     9.327
  11.560         82.50	     9.950
  11.580         65.00	     8.832
  11.600         75.83	     9.539
  11.620         73.33	     9.381
  11.640         62.50	     8.660
  11.660         55.83	     8.185
  11.680         75.00	     9.487
  11.700         72.50	     9.327
  11.720         74.17	     9.434
  11.740         78.33	     9.695
  11.760         73.33	     9.381
  11.780         65.00	     8.832
  11.800         75.00	     9.487
  11.820         70.00	     9.165
  11.840         96.67	    10.770
  11.860         64.17	     8.775
  11.880         76.67	     9.592
  11.900         83.33	    10.000
  11.920         88.33	    10.296
  11.940         82.50	     9.950
  11.960         83.33	    10.000
  11.980         79.17	     9.747
  12.000         83.33	    10.000
  12.020         90.83	    10.440
  12.040         82.50	     9.950
  12.060         93.33	    10.583
  12.080         80.00	     9.798
  12.100         95.00	    10.677
  12.120        100.00	    10.954
  12.140        108.33	    11.402
  12.160        121.67	    12.083
  12.180        132.50	    12.610
  12.200        115.00	    11.747
  12.220        155.83	    13.675
  12.240        146.67	    13.266
  12.260        182.50	    14.799
  12.280        250.83	    17.349
  12.300        314.17	    19.416
  12.320        425.83	    22.605
  12.340        577.50	    26.325
  12.360        813.33	    31.241
  12.380        885.83	    32.604
  12.400        770.00	    30.397
  12.420        638.33	    27.677
  12.440        477.50	    23.937
  12.460        371.67	    21.119
  12.480        312.50	    19.365
  12.500        310.00	    19.287
  12.520        295.83	    18.841
  12.540        355.00	    20.640
  12.560        355.00	    20.640
  12.580        354.17	    20.616
  12.600        378.33	    21.307
  12.620        432.50	    22.782
  12.640        486.67	    24.166
  12.660        622.50	    27.331
  12.680        605.00	    26.944
  12.700        561.67	    25.962
  12.720        463.33	    23.580
  12.740        335.83	    20.075
  12.760        237.50	    16.882
  12.780        183.33	    14.832
  12.800        147.50	    13.304
  12.820        110.83	    11.533
  12.840        112.50	    11.619
  12.860         93.33	    10.583
  12.880         83.33	    10.000
  12.900        100.83	    11.000
  12.920         89.17	    10.344
  12.940         79.17	     9.747
  12.960         80.00	     9.798
  12.980         73.33	     9.381
  13.000         75.00	     9.487
  13.020         76.67	     9.592
  13.040         70.00	     9.165
  13.060         70.83	     9.220
  13.080         73.33	     9.381
  13.100         53.33	     8.000
  13.120         65.83	     8.888
  13.140         61.67	     8.602
  13.160         60.00	     8.485
  13.180         52.50	     7.937
  13.200         73.33	     9.381
  13.220         59.17	     8.426
  13.240         54.17	     8.062
  13.260         63.33	     8.718
  13.280         62.50	     8.660
  13.300         45.00	     7.348
  13.320         70.83	     9.220
  13.340         60.83	     8.544
  13.360         60.83	     8.544
  13.380         60.83	     8.544
  13.400         66.67	     8.944
  13.420         78.33	     9.695
  13.440         53.33	     8.000
  13.460         55.00	     8.124
  13.480         60.83	     8.544
  13.500         63.33	     8.718
  13.520         67.50	     9.000
  13.540         70.00	     9.165
  13.560         50.83	     7.810
  13.580         51.67	     7.874
  13.600         58.33	     8.367
  13.620         62.50	     8.660
  13.640         52.50	     7.937
  13.660         59.17	     8.426
  13.680         68.33	     9.055
  13.700         66.67	     8.944
  13.720         65.00	     8.832
  13.740         66.67	     8.944
  13.760         54.17	     8.062
  13.780         57.50	     8.307
  13.800         70.83	     9.220
  13.820         65.83	     8.888
  13.840         65.00	     8.832
  13.860         56.67	     8.246
  13.880         62.50	     8.660
  13.900         69.17	     9.110
  13.920         49.17	     7.681
  13.940         60.83	     8.544
  13.960         46.67	     7.483
  13.980         65.00	     8.832
  14.000         85.00	    10.100
  14.020         93.33	    10.583
  14.040         91.67	    10.488
  14.060         90.00	    10.392
  14.080        105.00	    11.225
  14.100         74.17	     9.434
  14.120         82.50	     9.950
  14.140         61.67	     8.602
  14.160         62.50	     8.660
  14.180         62.50	     8.660
  14.200         68.33	     9.055
  14.220         60.83	     8.544
  14.240         60.83	     8.544
  14.260         47.50	     7.550
  14.280         54.17	     8.062
  14.300         54.17	     8.062
  14.320         47.50	     7.550
  14.340         43.33	     7.211
  14.360         51.67	     7.874
  14.380         49.17	     7.681
  14.400         58.33	     8.367
