
Filename:
	C:\Program Files\Thermo Electron\WinXRD\Datafiles\F_HERMAN\GEO\GG_2_SFT.raw

File Created:
	October 12, 2020 - 01:37 PM

Specimen Id:
	GG2 SFT

Specimen Name:
	

Specimen Description:
	

Comment:
Scan Type: 2Theta Scan
Start Angle: 3 deg.
Stop Angle: 65 deg.
Num Points: 3101
Step Size: 0.02 deg.
Scan Rate: 1.000000
Scan Mode: Continuous
Wavelength: 1.540562
\Kalpha1: 1.540562	\Kalpha2: 1.544390	\Kbeta: 1.392218

Optics:
		Detector:
			 Type: Fixed Slits
		Tube: 
			 Type: Fixed Slits


Datas:
 Pos [deg]       Rate [CPS]      ESD [-]

Range 1 ---> Iteration 1
   3.000        378.33	    21.307
   3.020        370.00	    21.071
   3.040        350.00	    20.494
   3.060        399.17	    21.886
   3.080        362.50	    20.857
   3.100        376.67	    21.260
   3.120        370.83	    21.095
   3.140        400.83	    21.932
   3.160        365.00	    20.928
   3.180        356.67	    20.688
   3.200        351.67	    20.543
   3.220        360.00	    20.785
   3.240        336.67	    20.100
   3.260        352.50	    20.567
   3.280        341.67	    20.248
   3.300        360.00	    20.785
   3.320        320.00	    19.596
   3.340        347.50	    20.421
   3.360        333.33	    20.000
   3.380        334.17	    20.025
   3.400        335.00	    20.050
   3.420        338.33	    20.149
   3.440        367.50	    21.000
   3.460        326.67	    19.799
   3.480        320.83	    19.621
   3.500        311.67	    19.339
   3.520        315.00	    19.442
   3.540        338.33	    20.149
   3.560        298.33	    18.921
   3.580        300.83	    19.000
   3.600        320.83	    19.621
   3.620        324.17	    19.723
   3.640        321.67	    19.647
   3.660        286.67	    18.547
   3.680        296.67	    18.868
   3.700        304.17	    19.105
   3.720        328.33	    19.849
   3.740        290.00	    18.655
   3.760        293.33	    18.762
   3.780        295.83	    18.841
   3.800        295.00	    18.815
   3.820        283.33	    18.439
   3.840        276.67	    18.221
   3.860        249.17	    17.292
   3.880        303.33	    19.079
   3.900        272.50	    18.083
   3.920        281.67	    18.385
   3.940        267.50	    17.916
   3.960        292.50	    18.735
   3.980        275.00	    18.166
   4.000        265.83	    17.861
   4.020        303.33	    19.079
   4.040        265.00	    17.833
   4.060        257.50	    17.578
   4.080        295.00	    18.815
   4.100        258.33	    17.607
   4.120        265.00	    17.833
   4.140        271.67	    18.055
   4.160        254.17	    17.464
   4.180        256.67	    17.550
   4.200        258.33	    17.607
   4.220        256.67	    17.550
   4.240        255.00	    17.493
   4.260        268.33	    17.944
   4.280        257.50	    17.578
   4.300        264.17	    17.804
   4.320        281.67	    18.385
   4.340        254.17	    17.464
   4.360        253.33	    17.436
   4.380        258.33	    17.607
   4.400        218.33	    16.186
   4.420        243.33	    17.088
   4.440        254.17	    17.464
   4.460        269.17	    17.972
   4.480        232.50	    16.703
   4.500        241.67	    17.029
   4.520        216.67	    16.125
   4.540        232.50	    16.703
   4.560        211.67	    15.937
   4.580        229.17	    16.583
   4.600        243.33	    17.088
   4.620        255.83	    17.521
   4.640        234.17	    16.763
   4.660        247.50	    17.234
   4.680        236.67	    16.852
   4.700        232.50	    16.703
   4.720        216.67	    16.125
   4.740        243.33	    17.088
   4.760        225.00	    16.432
   4.780        231.67	    16.673
   4.800        210.00	    15.875
   4.820        225.00	    16.432
   4.840        218.33	    16.186
   4.860        219.17	    16.217
   4.880        203.33	    15.620
   4.900        225.83	    16.462
   4.920        188.33	    15.033
   4.940        242.50	    17.059
   4.960        223.33	    16.371
   4.980        217.50	    16.155
   5.000        224.17	    16.401
   5.020        197.50	    15.395
   5.040        202.50	    15.588
   5.060        225.00	    16.432
   5.080        201.67	    15.556
   5.100        233.33	    16.733
   5.120        190.00	    15.100
   5.140        205.00	    15.684
   5.160        222.50	    16.340
   5.180        232.50	    16.703
   5.200        194.17	    15.264
   5.220        217.50	    16.155
   5.240        192.50	    15.199
   5.260        203.33	    15.620
   5.280        210.83	    15.906
   5.300        208.33	    15.811
   5.320        207.50	    15.780
   5.340        212.50	    15.969
   5.360        219.17	    16.217
   5.380        187.50	    15.000
   5.400        208.33	    15.811
   5.420        209.17	    15.843
   5.440        187.50	    15.000
   5.460        200.83	    15.524
   5.480        191.67	    15.166
   5.500        185.00	    14.900
   5.520        181.67	    14.765
   5.540        183.33	    14.832
   5.560        213.33	    16.000
   5.580        218.33	    16.186
   5.600        176.67	    14.560
   5.620        166.67	    14.142
   5.640        167.50	    14.177
   5.660        185.83	    14.933
   5.680        163.33	    14.000
   5.700        160.83	    13.892
   5.720        194.17	    15.264
   5.740        158.33	    13.784
   5.760        180.00	    14.697
   5.780        181.67	    14.765
   5.800        190.83	    15.133
   5.820        175.83	    14.526
   5.840        176.67	    14.560
   5.860        201.67	    15.556
   5.880        197.50	    15.395
   5.900        201.67	    15.556
   5.920        175.00	    14.491
   5.940        176.67	    14.560
   5.960        206.67	    15.748
   5.980        206.67	    15.748
   6.000        192.50	    15.199
   6.020        193.33	    15.232
   6.040        187.50	    15.000
   6.060        210.00	    15.875
   6.080        186.67	    14.967
   6.100        219.17	    16.217
   6.120        202.50	    15.588
   6.140        205.83	    15.716
   6.160        209.17	    15.843
   6.180        208.33	    15.811
   6.200        230.83	    16.643
   6.220        227.50	    16.523
   6.240        208.33	    15.811
   6.260        210.83	    15.906
   6.280        231.67	    16.673
   6.300        207.50	    15.780
   6.320        202.50	    15.588
   6.340        201.67	    15.556
   6.360        177.50	    14.595
   6.380        164.17	    14.036
   6.400        165.83	    14.107
   6.420        171.67	    14.353
   6.440        185.83	    14.933
   6.460        178.33	    14.629
   6.480        181.67	    14.765
   6.500        180.83	    14.731
   6.520        153.33	    13.565
   6.540        171.67	    14.353
   6.560        161.67	    13.928
   6.580        170.00	    14.283
   6.600        150.83	    13.454
   6.620        165.00	    14.071
   6.640        175.83	    14.526
   6.660        144.17	    13.153
   6.680        176.67	    14.560
   6.700        174.17	    14.457
   6.720        157.50	    13.748
   6.740        171.67	    14.353
   6.760        180.83	    14.731
   6.780        157.50	    13.748
   6.800        167.50	    14.177
   6.820        162.50	    13.964
   6.840        165.00	    14.071
   6.860        143.33	    13.115
   6.880        167.50	    14.177
   6.900        158.33	    13.784
   6.920        159.17	    13.820
   6.940        145.00	    13.191
   6.960        140.00	    12.961
   6.980        162.50	    13.964
   7.000        123.33	    12.166
   7.020        143.33	    13.115
   7.040        169.17	    14.248
   7.060        155.83	    13.675
   7.080        136.67	    12.806
   7.100        141.67	    13.038
   7.120        164.17	    14.036
   7.140        140.00	    12.961
   7.160        140.00	    12.961
   7.180        126.67	    12.329
   7.200        154.17	    13.601
   7.220        118.33	    11.916
   7.240        120.83	    12.042
   7.260        160.83	    13.892
   7.280        139.17	    12.923
   7.300        135.83	    12.767
   7.320        137.50	    12.845
   7.340        153.33	    13.565
   7.360        123.33	    12.166
   7.380        140.00	    12.961
   7.400        144.17	    13.153
   7.420        138.33	    12.884
   7.440        122.50	    12.124
   7.460        130.00	    12.490
   7.480        142.50	    13.077
   7.500        123.33	    12.166
   7.520        120.83	    12.042
   7.540        145.83	    13.229
   7.560        149.17	    13.379
   7.580        124.17	    12.207
   7.600        120.00	    12.000
   7.620        138.33	    12.884
   7.640        127.50	    12.369
   7.660        133.33	    12.649
   7.680        119.17	    11.958
   7.700        122.50	    12.124
   7.720        131.67	    12.570
   7.740        153.33	    13.565
   7.760        122.50	    12.124
   7.780        105.83	    11.269
   7.800        110.00	    11.489
   7.820        144.17	    13.153
   7.840        135.83	    12.767
   7.860        136.67	    12.806
   7.880        110.83	    11.533
   7.900        127.50	    12.369
   7.920        125.83	    12.288
   7.940        120.00	    12.000
   7.960        128.33	    12.410
   7.980        122.50	    12.124
   8.000        135.83	    12.767
   8.020        155.83	    13.675
   8.040        141.67	    13.038
   8.060        136.67	    12.806
   8.080        135.83	    12.767
   8.100        135.83	    12.767
   8.120        140.00	    12.961
   8.140        142.50	    13.077
   8.160        131.67	    12.570
   8.180        119.17	    11.958
   8.200        126.67	    12.329
   8.220        137.50	    12.845
   8.240        137.50	    12.845
   8.260        120.83	    12.042
   8.280        125.83	    12.288
   8.300        125.00	    12.247
   8.320        124.17	    12.207
   8.340        127.50	    12.369
   8.360        133.33	    12.649
   8.380        125.00	    12.247
   8.400        150.00	    13.416
   8.420        128.33	    12.410
   8.440        164.17	    14.036
   8.460        149.17	    13.379
   8.480        156.67	    13.711
   8.500        149.17	    13.379
   8.520        128.33	    12.410
   8.540        150.00	    13.416
   8.560        145.83	    13.229
   8.580        133.33	    12.649
   8.600        140.83	    13.000
   8.620        170.83	    14.318
   8.640        167.50	    14.177
   8.660        145.00	    13.191
   8.680        184.17	    14.866
   8.700        185.00	    14.900
   8.720        197.50	    15.395
   8.740        226.67	    16.492
   8.760        225.83	    16.462
   8.780        254.17	    17.464
   8.800        264.17	    17.804
   8.820        282.50	    18.412
   8.840        348.33	    20.445
   8.860        351.67	    20.543
   8.880        353.33	    20.591
   8.900        344.17	    20.322
   8.920        401.67	    21.954
   8.940        373.33	    21.166
   8.960        311.67	    19.339
   8.980        283.33	    18.439
   9.000        221.67	    16.310
   9.020        187.50	    15.000
   9.040        180.00	    14.697
   9.060        142.50	    13.077
   9.080        112.50	    11.619
   9.100        133.33	    12.649
   9.120        123.33	    12.166
   9.140        115.83	    11.790
   9.160        142.50	    13.077
   9.180        125.00	    12.247
   9.200        134.17	    12.689
   9.220        116.67	    11.832
   9.240        125.00	    12.247
   9.260        121.67	    12.083
   9.280        110.00	    11.489
   9.300        100.83	    11.000
   9.320        116.67	    11.832
   9.340        108.33	    11.402
   9.360        105.00	    11.225
   9.380        107.50	    11.358
   9.400        114.17	    11.705
   9.420        104.17	    11.180
   9.440        107.50	    11.358
   9.460        106.67	    11.314
   9.480        108.33	    11.402
   9.500        110.00	    11.489
   9.520        126.67	    12.329
   9.540         85.83	    10.149
   9.560         97.50	    10.817
   9.580         94.17	    10.630
   9.600         99.17	    10.909
   9.620        122.50	    12.124
   9.640         95.00	    10.677
   9.660        100.83	    11.000
   9.680        105.00	    11.225
   9.700         99.17	    10.909
   9.720         99.17	    10.909
   9.740         75.83	     9.539
   9.760        106.67	    11.314
   9.780        124.17	    12.207
   9.800         86.67	    10.198
   9.820         89.17	    10.344
   9.840         80.83	     9.849
   9.860        100.00	    10.954
   9.880        108.33	    11.402
   9.900         93.33	    10.583
   9.920         82.50	     9.950
   9.940        107.50	    11.358
   9.960         97.50	    10.817
   9.980         80.83	     9.849
  10.000         83.33	    10.000
  10.020         74.17	     9.434
  10.040         75.83	     9.539
  10.060         82.50	     9.950
  10.080         89.17	    10.344
  10.100         85.83	    10.149
  10.120         93.33	    10.583
  10.140         93.33	    10.583
  10.160         80.83	     9.849
  10.180         78.33	     9.695
  10.200         90.00	    10.392
  10.220         69.17	     9.110
  10.240         78.33	     9.695
  10.260         90.00	    10.392
  10.280         86.67	    10.198
  10.300        108.33	    11.402
  10.320         76.67	     9.592
  10.340         93.33	    10.583
  10.360         98.33	    10.863
  10.380         99.17	    10.909
  10.400         87.50	    10.247
  10.420        103.33	    11.136
  10.440         96.67	    10.770
  10.460        105.00	    11.225
  10.480        110.83	    11.533
  10.500        119.17	    11.958
  10.520        129.17	    12.450
  10.540        110.83	    11.533
  10.560        123.33	    12.166
  10.580        140.00	    12.961
  10.600        116.67	    11.832
  10.620        100.83	    11.000
  10.640         98.33	    10.863
  10.660         85.00	    10.100
  10.680         89.17	    10.344
  10.700         90.83	    10.440
  10.720         89.17	    10.344
  10.740         87.50	    10.247
  10.760         85.00	    10.100
  10.780         84.17	    10.050
  10.800         85.83	    10.149
  10.820         87.50	    10.247
  10.840         80.83	     9.849
  10.860         79.17	     9.747
  10.880         65.83	     8.888
  10.900         90.00	    10.392
  10.920         83.33	    10.000
  10.940         69.17	     9.110
  10.960         78.33	     9.695
  10.980         73.33	     9.381
  11.000         79.17	     9.747
  11.020         82.50	     9.950
  11.040         80.83	     9.849
  11.060         83.33	    10.000
  11.080         74.17	     9.434
  11.100         82.50	     9.950
  11.120         78.33	     9.695
  11.140         75.00	     9.487
  11.160         72.50	     9.327
  11.180         67.50	     9.000
  11.200         80.83	     9.849
  11.220         90.83	    10.440
  11.240         75.83	     9.539
  11.260         80.00	     9.798
  11.280         75.00	     9.487
  11.300         56.67	     8.246
  11.320         75.83	     9.539
  11.340         78.33	     9.695
  11.360         76.67	     9.592
  11.380         75.83	     9.539
  11.400         76.67	     9.592
  11.420         71.67	     9.274
  11.440         83.33	    10.000
  11.460         67.50	     9.000
  11.480         79.17	     9.747
  11.500         76.67	     9.592
  11.520         76.67	     9.592
  11.540         86.67	    10.198
  11.560         91.67	    10.488
  11.580         77.50	     9.644
  11.600         79.17	     9.747
  11.620         76.67	     9.592
  11.640         74.17	     9.434
  11.660         71.67	     9.274
  11.680         70.00	     9.165
  11.700         71.67	     9.274
  11.720         61.67	     8.602
  11.740         61.67	     8.602
  11.760         78.33	     9.695
  11.780         79.17	     9.747
  11.800         67.50	     9.000
  11.820         77.50	     9.644
  11.840         69.17	     9.110
  11.860         74.17	     9.434
  11.880         81.67	     9.899
  11.900         68.33	     9.055
  11.920         75.83	     9.539
  11.940         78.33	     9.695
  11.960         70.83	     9.220
  11.980         83.33	    10.000
  12.000         95.83	    10.724
  12.020         81.67	     9.899
  12.040        110.83	    11.533
  12.060         98.33	    10.863
  12.080         91.67	    10.488
  12.100        104.17	    11.180
  12.120        112.50	    11.619
  12.140        117.50	    11.874
  12.160        144.17	    13.153
  12.180        157.50	    13.748
  12.200        174.17	    14.457
  12.220        225.83	    16.462
  12.240        228.33	    16.553
  12.260        250.83	    17.349
  12.280        218.33	    16.186
  12.300        195.00	    15.297
  12.320        160.83	    13.892
  12.340        146.67	    13.266
  12.360        149.17	    13.379
  12.380        160.00	    13.856
  12.400        167.50	    14.177
  12.420        193.33	    15.232
  12.440        191.67	    15.166
  12.460        226.67	    16.492
  12.480        241.67	    17.029
  12.500        285.83	    18.520
  12.520        305.83	    19.157
  12.540        284.17	    18.466
  12.560        297.50	    18.894
  12.580        275.83	    18.193
  12.600        229.17	    16.583
  12.620        191.67	    15.166
  12.640        130.83	    12.530
  12.660        108.33	    11.402
  12.680         91.67	    10.488
  12.700         92.50	    10.536
  12.720        100.00	    10.954
  12.740         65.83	     8.888
  12.760         78.33	     9.695
  12.780         71.67	     9.274
  12.800         74.17	     9.434
  12.820         67.50	     9.000
  12.840         72.50	     9.327
  12.860         68.33	     9.055
  12.880         66.67	     8.944
  12.900         77.50	     9.644
  12.920         64.17	     8.775
  12.940         63.33	     8.718
  12.960         61.67	     8.602
  12.980         61.67	     8.602
  13.000         76.67	     9.592
  13.020         70.00	     9.165
  13.040         78.33	     9.695
  13.060         65.00	     8.832
  13.080         75.00	     9.487
  13.100         65.00	     8.832
  13.120         58.33	     8.367
  13.140         78.33	     9.695
  13.160         65.00	     8.832
  13.180         78.33	     9.695
  13.200         56.67	     8.246
  13.220         60.00	     8.485
  13.240         52.50	     7.937
  13.260         61.67	     8.602
  13.280         69.17	     9.110
  13.300         65.00	     8.832
  13.320         57.50	     8.307
  13.340         58.33	     8.367
  13.360         55.83	     8.185
  13.380         66.67	     8.944
  13.400         74.17	     9.434
  13.420         55.00	     8.124
  13.440         70.00	     9.165
  13.460         55.83	     8.185
  13.480         66.67	     8.944
  13.500         55.83	     8.185
  13.520         64.17	     8.775
  13.540         63.33	     8.718
  13.560         57.50	     8.307
  13.580         59.17	     8.426
  13.600         59.17	     8.426
  13.620         61.67	     8.602
  13.640         74.17	     9.434
  13.660         60.83	     8.544
  13.680         53.33	     8.000
  13.700         64.17	     8.775
  13.720         62.50	     8.660
  13.740         60.00	     8.485
  13.760         55.00	     8.124
  13.780         61.67	     8.602
  13.800         80.83	     9.849
  13.820         74.17	     9.434
  13.840         84.17	    10.050
  13.860         75.00	     9.487
  13.880         79.17	     9.747
  13.900         95.00	    10.677
  13.920         85.83	    10.149
  13.940         66.67	     8.944
  13.960         64.17	     8.775
  13.980         64.17	     8.775
  14.000         55.83	     8.185
  14.020         71.67	     9.274
  14.040         60.00	     8.485
  14.060         74.17	     9.434
  14.080         68.33	     9.055
  14.100         60.00	     8.485
  14.120         58.33	     8.367
  14.140         75.00	     9.487
  14.160         62.50	     8.660
  14.180         59.17	     8.426
  14.200         56.67	     8.246
  14.220         39.17	     6.856
  14.240         50.00	     7.746
  14.260         53.33	     8.000
  14.280         48.33	     7.616
  14.300         43.33	     7.211
  14.320         42.50	     7.141
  14.340         56.67	     8.246
  14.360         55.83	     8.185
  14.380         44.17	     7.280
  14.400         48.33	     7.616
