
Filename:
	C:\Program Files\Thermo Electron\WinXRD\Datafiles\F_HERMAN\GEO\GG_3_SFT.raw

File Created:
	October 12, 2020 - 02:40 PM

Specimen Id:
	GG3 SFT

Specimen Name:
	

Specimen Description:
	

Comment:
Scan Type: 2Theta Scan
Start Angle: 3 deg.
Stop Angle: 65 deg.
Num Points: 3101
Step Size: 0.02 deg.
Scan Rate: 1.000000
Scan Mode: Continuous
Wavelength: 1.540562
\Kalpha1: 1.540562	\Kalpha2: 1.544390	\Kbeta: 1.392218

Optics:
		Detector:
			 Type: Fixed Slits
		Tube: 
			 Type: Fixed Slits


Datas:
 Pos [deg]       Rate [CPS]      ESD [-]

Range 1 ---> Iteration 1
   3.000        416.67	    22.361
   3.020        394.17	    21.749
   3.040        400.00	    21.909
   3.060        395.00	    21.772
   3.080        378.33	    21.307
   3.100        385.83	    21.517
   3.120        383.33	    21.448
   3.140        386.67	    21.541
   3.160        363.33	    20.881
   3.180        362.50	    20.857
   3.200        363.33	    20.881
   3.220        353.33	    20.591
   3.240        377.50	    21.284
   3.260        377.50	    21.284
   3.280        365.00	    20.928
   3.300        350.00	    20.494
   3.320        373.33	    21.166
   3.340        321.67	    19.647
   3.360        349.17	    20.469
   3.380        380.00	    21.354
   3.400        315.83	    19.468
   3.420        355.83	    20.664
   3.440        315.83	    19.468
   3.460        320.00	    19.596
   3.480        331.67	    19.950
   3.500        320.00	    19.596
   3.520        329.17	    19.875
   3.540        320.83	    19.621
   3.560        364.17	    20.905
   3.580        321.67	    19.647
   3.600        353.33	    20.591
   3.620        315.83	    19.468
   3.640        315.83	    19.468
   3.660        307.50	    19.209
   3.680        328.33	    19.849
   3.700        316.67	    19.494
   3.720        353.33	    20.591
   3.740        285.00	    18.493
   3.760        298.33	    18.921
   3.780        307.50	    19.209
   3.800        285.83	    18.520
   3.820        300.83	    19.000
   3.840        316.67	    19.494
   3.860        274.17	    18.138
   3.880        291.67	    18.708
   3.900        301.67	    19.026
   3.920        302.50	    19.053
   3.940        260.83	    17.692
   3.960        276.67	    18.221
   3.980        278.33	    18.276
   4.000        290.83	    18.682
   4.020        295.83	    18.841
   4.040        257.50	    17.578
   4.060        271.67	    18.055
   4.080        280.83	    18.358
   4.100        265.83	    17.861
   4.120        280.00	    18.330
   4.140        284.17	    18.466
   4.160        270.00	    18.000
   4.180        271.67	    18.055
   4.200        257.50	    17.578
   4.220        254.17	    17.464
   4.240        268.33	    17.944
   4.260        264.17	    17.804
   4.280        263.33	    17.776
   4.300        245.83	    17.176
   4.320        255.00	    17.493
   4.340        258.33	    17.607
   4.360        261.67	    17.720
   4.380        236.67	    16.852
   4.400        245.00	    17.146
   4.420        237.50	    16.882
   4.440        251.67	    17.378
   4.460        234.17	    16.763
   4.480        260.83	    17.692
   4.500        235.00	    16.793
   4.520        234.17	    16.763
   4.540        218.33	    16.186
   4.560        259.17	    17.635
   4.580        227.50	    16.523
   4.600        220.00	    16.248
   4.620        244.17	    17.117
   4.640        226.67	    16.492
   4.660        245.00	    17.146
   4.680        220.00	    16.248
   4.700        209.17	    15.843
   4.720        225.83	    16.462
   4.740        215.83	    16.093
   4.760        215.00	    16.062
   4.780        235.00	    16.793
   4.800        236.67	    16.852
   4.820        199.17	    15.460
   4.840        222.50	    16.340
   4.860        198.33	    15.427
   4.880        223.33	    16.371
   4.900        242.50	    17.059
   4.920        217.50	    16.155
   4.940        215.00	    16.062
   4.960        221.67	    16.310
   4.980        220.00	    16.248
   5.000        220.83	    16.279
   5.020        211.67	    15.937
   5.040        240.00	    16.971
   5.060        209.17	    15.843
   5.080        215.00	    16.062
   5.100        245.83	    17.176
   5.120        206.67	    15.748
   5.140        226.67	    16.492
   5.160        208.33	    15.811
   5.180        213.33	    16.000
   5.200        196.67	    15.362
   5.220        190.00	    15.100
   5.240        206.67	    15.748
   5.260        191.67	    15.166
   5.280        190.00	    15.100
   5.300        195.00	    15.297
   5.320        202.50	    15.588
   5.340        207.50	    15.780
   5.360        210.83	    15.906
   5.380        191.67	    15.166
   5.400        196.67	    15.362
   5.420        206.67	    15.748
   5.440        207.50	    15.780
   5.460        221.67	    16.310
   5.480        202.50	    15.588
   5.500        187.50	    15.000
   5.520        191.67	    15.166
   5.540        217.50	    16.155
   5.560        198.33	    15.427
   5.580        193.33	    15.232
   5.600        193.33	    15.232
   5.620        177.50	    14.595
   5.640        177.50	    14.595
   5.660        215.83	    16.093
   5.680        186.67	    14.967
   5.700        176.67	    14.560
   5.720        200.00	    15.492
   5.740        170.83	    14.318
   5.760        206.67	    15.748
   5.780        228.33	    16.553
   5.800        182.50	    14.799
   5.820        168.33	    14.213
   5.840        167.50	    14.177
   5.860        175.00	    14.491
   5.880        175.00	    14.491
   5.900        193.33	    15.232
   5.920        205.00	    15.684
   5.940        210.00	    15.875
   5.960        208.33	    15.811
   5.980        195.00	    15.297
   6.000        210.83	    15.906
   6.020        219.17	    16.217
   6.040        190.83	    15.133
   6.060        191.67	    15.166
   6.080        229.17	    16.583
   6.100        227.50	    16.523
   6.120        221.67	    16.310
   6.140        217.50	    16.155
   6.160        265.83	    17.861
   6.180        216.67	    16.125
   6.200        261.67	    17.720
   6.220        256.67	    17.550
   6.240        280.00	    18.330
   6.260        294.17	    18.788
   6.280        290.00	    18.655
   6.300        280.00	    18.330
   6.320        262.50	    17.748
   6.340        237.50	    16.882
   6.360        199.17	    15.460
   6.380        201.67	    15.556
   6.400        219.17	    16.217
   6.420        172.50	    14.387
   6.440        165.83	    14.107
   6.460        191.67	    15.166
   6.480        165.83	    14.107
   6.500        185.00	    14.900
   6.520        175.00	    14.491
   6.540        169.17	    14.248
   6.560        167.50	    14.177
   6.580        162.50	    13.964
   6.600        169.17	    14.248
   6.620        180.83	    14.731
   6.640        183.33	    14.832
   6.660        178.33	    14.629
   6.680        175.00	    14.491
   6.700        175.00	    14.491
   6.720        170.00	    14.283
   6.740        160.83	    13.892
   6.760        154.17	    13.601
   6.780        166.67	    14.142
   6.800        176.67	    14.560
   6.820        162.50	    13.964
   6.840        170.83	    14.318
   6.860        141.67	    13.038
   6.880        151.67	    13.491
   6.900        138.33	    12.884
   6.920        162.50	    13.964
   6.940        145.83	    13.229
   6.960        158.33	    13.784
   6.980        157.50	    13.748
   7.000        136.67	    12.806
   7.020        168.33	    14.213
   7.040        165.83	    14.107
   7.060        157.50	    13.748
   7.080        160.83	    13.892
   7.100        135.83	    12.767
   7.120        139.17	    12.923
   7.140        147.50	    13.304
   7.160        163.33	    14.000
   7.180        139.17	    12.923
   7.200        148.33	    13.342
   7.220        157.50	    13.748
   7.240        134.17	    12.689
   7.260        154.17	    13.601
   7.280        140.83	    13.000
   7.300        157.50	    13.748
   7.320        140.00	    12.961
   7.340        141.67	    13.038
   7.360        144.17	    13.153
   7.380        142.50	    13.077
   7.400        148.33	    13.342
   7.420        150.83	    13.454
   7.440        147.50	    13.304
   7.460        154.17	    13.601
   7.480        130.83	    12.530
   7.500        149.17	    13.379
   7.520        118.33	    11.916
   7.540        135.83	    12.767
   7.560        141.67	    13.038
   7.580        149.17	    13.379
   7.600        128.33	    12.410
   7.620        111.67	    11.576
   7.640        127.50	    12.369
   7.660        150.00	    13.416
   7.680        146.67	    13.266
   7.700        130.83	    12.530
   7.720        140.00	    12.961
   7.740        137.50	    12.845
   7.760        137.50	    12.845
   7.780        130.00	    12.490
   7.800        134.17	    12.689
   7.820        138.33	    12.884
   7.840        115.00	    11.747
   7.860        159.17	    13.820
   7.880        111.67	    11.576
   7.900        135.83	    12.767
   7.920        120.00	    12.000
   7.940        126.67	    12.329
   7.960        142.50	    13.077
   7.980        130.00	    12.490
   8.000        132.50	    12.610
   8.020        131.67	    12.570
   8.040        143.33	    13.115
   8.060        116.67	    11.832
   8.080        111.67	    11.576
   8.100        127.50	    12.369
   8.120        122.50	    12.124
   8.140        125.00	    12.247
   8.160        132.50	    12.610
   8.180        140.83	    13.000
   8.200        128.33	    12.410
   8.220        141.67	    13.038
   8.240        110.00	    11.489
   8.260        125.83	    12.288
   8.280        149.17	    13.379
   8.300        145.00	    13.191
   8.320        150.00	    13.416
   8.340        131.67	    12.570
   8.360        156.67	    13.711
   8.380        148.33	    13.342
   8.400        123.33	    12.166
   8.420        151.67	    13.491
   8.440        125.00	    12.247
   8.460        124.17	    12.207
   8.480        134.17	    12.689
   8.500        169.17	    14.248
   8.520        159.17	    13.820
   8.540        142.50	    13.077
   8.560        150.00	    13.416
   8.580        157.50	    13.748
   8.600        170.00	    14.283
   8.620        180.00	    14.697
   8.640        160.83	    13.892
   8.660        194.17	    15.264
   8.680        170.83	    14.318
   8.700        181.67	    14.765
   8.720        218.33	    16.186
   8.740        204.17	    15.652
   8.760        227.50	    16.523
   8.780        278.33	    18.276
   8.800        294.17	    18.788
   8.820        346.67	    20.396
   8.840        365.00	    20.928
   8.860        410.00	    22.181
   8.880        490.00	    24.249
   8.900        596.67	    26.758
   8.920        650.83	    27.946
   8.940        609.17	    27.037
   8.960        486.67	    24.166
   8.980        343.33	    20.298
   9.000        244.17	    17.117
   9.020        183.33	    14.832
   9.040        185.00	    14.900
   9.060        141.67	    13.038
   9.080        143.33	    13.115
   9.100        141.67	    13.038
   9.120        145.00	    13.191
   9.140        130.83	    12.530
   9.160        120.83	    12.042
   9.180        130.83	    12.530
   9.200        136.67	    12.806
   9.220        132.50	    12.610
   9.240        113.33	    11.662
   9.260        129.17	    12.450
   9.280        122.50	    12.124
   9.300        122.50	    12.124
   9.320        130.83	    12.530
   9.340        104.17	    11.180
   9.360        106.67	    11.314
   9.380        119.17	    11.958
   9.400        122.50	    12.124
   9.420        107.50	    11.358
   9.440         96.67	    10.770
   9.460        118.33	    11.916
   9.480        131.67	    12.570
   9.500        139.17	    12.923
   9.520        108.33	    11.402
   9.540        112.50	    11.619
   9.560        100.83	    11.000
   9.580        107.50	    11.358
   9.600         97.50	    10.817
   9.620        114.17	    11.705
   9.640        108.33	    11.402
   9.660         80.83	     9.849
   9.680         80.00	     9.798
   9.700        100.83	    11.000
   9.720        108.33	    11.402
   9.740         93.33	    10.583
   9.760        114.17	    11.705
   9.780        126.67	    12.329
   9.800         93.33	    10.583
   9.820        110.00	    11.489
   9.840        116.67	    11.832
   9.860        108.33	    11.402
   9.880        122.50	    12.124
   9.900        106.67	    11.314
   9.920        111.67	    11.576
   9.940         96.67	    10.770
   9.960         89.17	    10.344
   9.980         94.17	    10.630
  10.000         90.83	    10.440
  10.020         92.50	    10.536
  10.040         70.83	     9.220
  10.060         81.67	     9.899
  10.080        101.67	    11.045
  10.100         73.33	     9.381
  10.120         89.17	    10.344
  10.140        112.50	    11.619
  10.160         95.83	    10.724
  10.180         90.83	    10.440
  10.200        106.67	    11.314
  10.220         87.50	    10.247
  10.240         90.00	    10.392
  10.260         88.33	    10.296
  10.280         95.00	    10.677
  10.300         91.67	    10.488
  10.320         96.67	    10.770
  10.340        102.50	    11.091
  10.360         84.17	    10.050
  10.380        100.00	    10.954
  10.400         94.17	    10.630
  10.420         93.33	    10.583
  10.440        100.00	    10.954
  10.460        108.33	    11.402
  10.480        120.83	    12.042
  10.500        110.83	    11.533
  10.520        134.17	    12.689
  10.540        142.50	    13.077
  10.560        160.00	    13.856
  10.580        150.83	    13.454
  10.600        144.17	    13.153
  10.620        136.67	    12.806
  10.640         93.33	    10.583
  10.660         98.33	    10.863
  10.680        104.17	    11.180
  10.700         84.17	    10.050
  10.720         83.33	    10.000
  10.740         74.17	     9.434
  10.760         80.83	     9.849
  10.780         90.83	    10.440
  10.800         77.50	     9.644
  10.820         79.17	     9.747
  10.840         80.00	     9.798
  10.860         89.17	    10.344
  10.880         80.83	     9.849
  10.900         90.00	    10.392
  10.920         67.50	     9.000
  10.940         73.33	     9.381
  10.960         72.50	     9.327
  10.980         75.83	     9.539
  11.000         83.33	    10.000
  11.020         85.00	    10.100
  11.040        105.00	    11.225
  11.060         62.50	     8.660
  11.080         79.17	     9.747
  11.100         66.67	     8.944
  11.120         79.17	     9.747
  11.140         76.67	     9.592
  11.160         75.83	     9.539
  11.180         86.67	    10.198
  11.200         77.50	     9.644
  11.220         74.17	     9.434
  11.240         88.33	    10.296
  11.260         82.50	     9.950
  11.280         80.00	     9.798
  11.300         75.83	     9.539
  11.320         89.17	    10.344
  11.340         65.00	     8.832
  11.360         85.00	    10.100
  11.380         98.33	    10.863
  11.400         88.33	    10.296
  11.420         78.33	     9.695
  11.440         70.83	     9.220
  11.460         94.17	    10.630
  11.480         61.67	     8.602
  11.500         80.00	     9.798
  11.520         76.67	     9.592
  11.540         70.83	     9.220
  11.560         81.67	     9.899
  11.580         75.00	     9.487
  11.600         70.00	     9.165
  11.620         84.17	    10.050
  11.640         74.17	     9.434
  11.660         85.00	    10.100
  11.680         84.17	    10.050
  11.700         75.83	     9.539
  11.720         79.17	     9.747
  11.740         90.00	    10.392
  11.760         90.00	    10.392
  11.780         70.83	     9.220
  11.800         87.50	    10.247
  11.820         73.33	     9.381
  11.840         89.17	    10.344
  11.860         80.00	     9.798
  11.880         69.17	     9.110
  11.900         75.83	     9.539
  11.920         80.83	     9.849
  11.940         97.50	    10.817
  11.960         90.83	    10.440
  11.980         90.83	    10.440
  12.000         91.67	    10.488
  12.020         80.83	     9.849
  12.040         95.83	    10.724
  12.060        102.50	    11.091
  12.080         97.50	    10.817
  12.100        107.50	    11.358
  12.120        107.50	    11.358
  12.140        143.33	    13.115
  12.160        180.83	    14.731
  12.180        215.00	    16.062
  12.200        272.50	    18.083
  12.220        314.17	    19.416
  12.240        325.00	    19.748
  12.260        378.33	    21.307
  12.280        348.33	    20.445
  12.300        281.67	    18.385
  12.320        236.67	    16.852
  12.340        199.17	    15.460
  12.360        179.17	    14.663
  12.380        202.50	    15.588
  12.400        204.17	    15.652
  12.420        237.50	    16.882
  12.440        276.67	    18.221
  12.460        315.83	    19.468
  12.480        361.67	    20.833
  12.500        412.50	    22.249
  12.520        425.00	    22.583
  12.540        478.33	    23.958
  12.560        500.83	    24.515
  12.580        420.83	    22.472
  12.600        341.67	    20.248
  12.620        223.33	    16.371
  12.640        175.00	    14.491
  12.660        110.00	    11.489
  12.680         94.17	    10.630
  12.700         80.00	     9.798
  12.720         91.67	    10.488
  12.740         95.83	    10.724
  12.760         81.67	     9.899
  12.780         74.17	     9.434
  12.800         79.17	     9.747
  12.820         84.17	    10.050
  12.840         75.00	     9.487
  12.860         80.00	     9.798
  12.880         80.00	     9.798
  12.900         71.67	     9.274
  12.920         75.83	     9.539
  12.940         80.83	     9.849
  12.960         73.33	     9.381
  12.980         70.00	     9.165
  13.000         55.83	     8.185
  13.020         68.33	     9.055
  13.040         67.50	     9.000
  13.060         67.50	     9.000
  13.080         80.00	     9.798
  13.100         68.33	     9.055
  13.120         65.00	     8.832
  13.140         60.00	     8.485
  13.160         55.83	     8.185
  13.180         48.33	     7.616
  13.200         59.17	     8.426
  13.220         59.17	     8.426
  13.240         65.00	     8.832
  13.260         78.33	     9.695
  13.280         58.33	     8.367
  13.300         76.67	     9.592
  13.320         65.00	     8.832
  13.340         69.17	     9.110
  13.360         60.83	     8.544
  13.380         68.33	     9.055
  13.400         52.50	     7.937
  13.420         46.67	     7.483
  13.440         78.33	     9.695
  13.460         50.00	     7.746
  13.480         67.50	     9.000
  13.500         59.17	     8.426
  13.520         64.17	     8.775
  13.540         55.00	     8.124
  13.560         52.50	     7.937
  13.580         64.17	     8.775
  13.600         65.00	     8.832
  13.620         65.00	     8.832
  13.640         60.83	     8.544
  13.660         67.50	     9.000
  13.680         78.33	     9.695
  13.700         78.33	     9.695
  13.720         68.33	     9.055
  13.740         61.67	     8.602
  13.760         88.33	    10.296
  13.780         49.17	     7.681
  13.800         66.67	     8.944
  13.820         80.00	     9.798
  13.840         80.00	     9.798
  13.860         90.00	    10.392
  13.880         90.83	    10.440
  13.900        100.00	    10.954
  13.920         85.00	    10.100
  13.940         90.83	    10.440
  13.960         86.67	    10.198
  13.980         70.00	     9.165
  14.000         74.17	     9.434
  14.020         68.33	     9.055
  14.040         79.17	     9.747
  14.060         65.83	     8.888
  14.080         55.83	     8.185
  14.100         59.17	     8.426
  14.120         64.17	     8.775
  14.140         52.50	     7.937
  14.160         45.83	     7.416
  14.180         57.50	     8.307
  14.200         59.17	     8.426
  14.220         65.00	     8.832
  14.240         60.83	     8.544
  14.260         55.83	     8.185
  14.280         59.17	     8.426
  14.300         54.17	     8.062
  14.320         50.83	     7.810
  14.340         53.33	     8.000
  14.360         49.17	     7.681
  14.380         60.83	     8.544
  14.400         48.33	     7.616
