
Filename:
	C:\Program Files\Thermo Electron\WinXRD\Datafiles\F_HERMAN\GEO\GG_4_SFT.raw

File Created:
	October 12, 2020 - 03:42 PM

Specimen Id:
	GG4 SFT

Specimen Name:
	

Specimen Description:
	

Comment:
Scan Type: 2Theta Scan
Start Angle: 3 deg.
Stop Angle: 65 deg.
Num Points: 3101
Step Size: 0.02 deg.
Scan Rate: 1.000000
Scan Mode: Continuous
Wavelength: 1.540562
\Kalpha1: 1.540562	\Kalpha2: 1.544390	\Kbeta: 1.392218

Optics:
		Detector:
			 Type: Fixed Slits
		Tube: 
			 Type: Fixed Slits


Datas:
 Pos [deg]       Rate [CPS]      ESD [-]

Range 1 ---> Iteration 1
   3.000        415.83	    22.338
   3.020        422.50	    22.517
   3.040        405.00	    22.045
   3.060        417.50	    22.383
   3.080        401.67	    21.954
   3.100        355.83	    20.664
   3.120        370.00	    21.071
   3.140        406.67	    22.091
   3.160        390.83	    21.656
   3.180        379.17	    21.331
   3.200        367.50	    21.000
   3.220        371.67	    21.119
   3.240        390.00	    21.633
   3.260        360.83	    20.809
   3.280        376.67	    21.260
   3.300        335.83	    20.075
   3.320        355.00	    20.640
   3.340        374.17	    21.190
   3.360        355.00	    20.640
   3.380        332.50	    19.975
   3.400        375.83	    21.237
   3.420        335.00	    20.050
   3.440        312.50	    19.365
   3.460        348.33	    20.445
   3.480        370.00	    21.071
   3.500        356.67	    20.688
   3.520        341.67	    20.248
   3.540        340.00	    20.199
   3.560        305.83	    19.157
   3.580        313.33	    19.391
   3.600        350.83	    20.518
   3.620        337.50	    20.125
   3.640        312.50	    19.365
   3.660        321.67	    19.647
   3.680        355.83	    20.664
   3.700        305.83	    19.157
   3.720        299.17	    18.947
   3.740        305.00	    19.131
   3.760        331.67	    19.950
   3.780        316.67	    19.494
   3.800        293.33	    18.762
   3.820        319.17	    19.570
   3.840        325.00	    19.748
   3.860        331.67	    19.950
   3.880        298.33	    18.921
   3.900        326.67	    19.799
   3.920        310.83	    19.313
   3.940        285.83	    18.520
   3.960        280.00	    18.330
   3.980        315.83	    19.468
   4.000        270.00	    18.000
   4.020        288.33	    18.601
   4.040        317.50	    19.519
   4.060        299.17	    18.947
   4.080        275.83	    18.193
   4.100        304.17	    19.105
   4.120        300.83	    19.000
   4.140        307.50	    19.209
   4.160        304.17	    19.105
   4.180        240.00	    16.971
   4.200        260.83	    17.692
   4.220        269.17	    17.972
   4.240        266.67	    17.889
   4.260        260.00	    17.664
   4.280        260.83	    17.692
   4.300        277.50	    18.248
   4.320        265.00	    17.833
   4.340        285.00	    18.493
   4.360        232.50	    16.703
   4.380        247.50	    17.234
   4.400        271.67	    18.055
   4.420        260.83	    17.692
   4.440        237.50	    16.882
   4.460        252.50	    17.407
   4.480        232.50	    16.703
   4.500        252.50	    17.407
   4.520        224.17	    16.401
   4.540        251.67	    17.378
   4.560        277.50	    18.248
   4.580        230.00	    16.613
   4.600        259.17	    17.635
   4.620        263.33	    17.776
   4.640        259.17	    17.635
   4.660        254.17	    17.464
   4.680        245.00	    17.146
   4.700        245.83	    17.176
   4.720        220.00	    16.248
   4.740        231.67	    16.673
   4.760        226.67	    16.492
   4.780        238.33	    16.912
   4.800        240.83	    17.000
   4.820        233.33	    16.733
   4.840        221.67	    16.310
   4.860        250.00	    17.321
   4.880        221.67	    16.310
   4.900        245.00	    17.146
   4.920        234.17	    16.763
   4.940        236.67	    16.852
   4.960        220.00	    16.248
   4.980        228.33	    16.553
   5.000        223.33	    16.371
   5.020        220.00	    16.248
   5.040        225.00	    16.432
   5.060        209.17	    15.843
   5.080        255.83	    17.521
   5.100        201.67	    15.556
   5.120        230.00	    16.613
   5.140        226.67	    16.492
   5.160        217.50	    16.155
   5.180        210.83	    15.906
   5.200        191.67	    15.166
   5.220        209.17	    15.843
   5.240        200.83	    15.524
   5.260        207.50	    15.780
   5.280        200.83	    15.524
   5.300        213.33	    16.000
   5.320        210.83	    15.906
   5.340        192.50	    15.199
   5.360        206.67	    15.748
   5.380        185.83	    14.933
   5.400        225.83	    16.462
   5.420        208.33	    15.811
   5.440        205.00	    15.684
   5.460        191.67	    15.166
   5.480        205.00	    15.684
   5.500        214.17	    16.031
   5.520        173.33	    14.422
   5.540        171.67	    14.353
   5.560        215.83	    16.093
   5.580        191.67	    15.166
   5.600        184.17	    14.866
   5.620        205.83	    15.716
   5.640        205.00	    15.684
   5.660        210.00	    15.875
   5.680        177.50	    14.595
   5.700        185.00	    14.900
   5.720        189.17	    15.067
   5.740        200.83	    15.524
   5.760        185.83	    14.933
   5.780        207.50	    15.780
   5.800        184.17	    14.866
   5.820        182.50	    14.799
   5.840        191.67	    15.166
   5.860        201.67	    15.556
   5.880        202.50	    15.588
   5.900        226.67	    16.492
   5.920        201.67	    15.556
   5.940        228.33	    16.553
   5.960        215.83	    16.093
   5.980        237.50	    16.882
   6.000        201.67	    15.556
   6.020        210.83	    15.906
   6.040        234.17	    16.763
   6.060        209.17	    15.843
   6.080        225.83	    16.462
   6.100        219.17	    16.217
   6.120        229.17	    16.583
   6.140        251.67	    17.378
   6.160        290.00	    18.655
   6.180        295.00	    18.815
   6.200        306.67	    19.183
   6.220        319.17	    19.570
   6.240        287.50	    18.574
   6.260        265.00	    17.833
   6.280        210.83	    15.906
   6.300        212.50	    15.969
   6.320        175.83	    14.526
   6.340        212.50	    15.969
   6.360        185.00	    14.900
   6.380        197.50	    15.395
   6.400        162.50	    13.964
   6.420        190.83	    15.133
   6.440        159.17	    13.820
   6.460        185.83	    14.933
   6.480        170.83	    14.318
   6.500        189.17	    15.067
   6.520        166.67	    14.142
   6.540        183.33	    14.832
   6.560        173.33	    14.422
   6.580        161.67	    13.928
   6.600        195.83	    15.330
   6.620        169.17	    14.248
   6.640        172.50	    14.387
   6.660        144.17	    13.153
   6.680        170.00	    14.283
   6.700        179.17	    14.663
   6.720        164.17	    14.036
   6.740        165.83	    14.107
   6.760        158.33	    13.784
   6.780        174.17	    14.457
   6.800        164.17	    14.036
   6.820        176.67	    14.560
   6.840        203.33	    15.620
   6.860        145.00	    13.191
   6.880        190.83	    15.133
   6.900        172.50	    14.387
   6.920        171.67	    14.353
   6.940        164.17	    14.036
   6.960        165.83	    14.107
   6.980        165.83	    14.107
   7.000        145.83	    13.229
   7.020        201.67	    15.556
   7.040        139.17	    12.923
   7.060        156.67	    13.711
   7.080        152.50	    13.528
   7.100        174.17	    14.457
   7.120        159.17	    13.820
   7.140        161.67	    13.928
   7.160        151.67	    13.491
   7.180        149.17	    13.379
   7.200        137.50	    12.845
   7.220        154.17	    13.601
   7.240        164.17	    14.036
   7.260        166.67	    14.142
   7.280        144.17	    13.153
   7.300        141.67	    13.038
   7.320        150.83	    13.454
   7.340        144.17	    13.153
   7.360        141.67	    13.038
   7.380        172.50	    14.387
   7.400        140.83	    13.000
   7.420        144.17	    13.153
   7.440        158.33	    13.784
   7.460        152.50	    13.528
   7.480        141.67	    13.038
   7.500        135.83	    12.767
   7.520        144.17	    13.153
   7.540        131.67	    12.570
   7.560        142.50	    13.077
   7.580        135.83	    12.767
   7.600        135.83	    12.767
   7.620        139.17	    12.923
   7.640        148.33	    13.342
   7.660        145.00	    13.191
   7.680        136.67	    12.806
   7.700        128.33	    12.410
   7.720        119.17	    11.958
   7.740        146.67	    13.266
   7.760        140.83	    13.000
   7.780        129.17	    12.450
   7.800        156.67	    13.711
   7.820        136.67	    12.806
   7.840        123.33	    12.166
   7.860        141.67	    13.038
   7.880        139.17	    12.923
   7.900        141.67	    13.038
   7.920        134.17	    12.689
   7.940        139.17	    12.923
   7.960        137.50	    12.845
   7.980        137.50	    12.845
   8.000        145.00	    13.191
   8.020        126.67	    12.329
   8.040        133.33	    12.649
   8.060        138.33	    12.884
   8.080        136.67	    12.806
   8.100        145.83	    13.229
   8.120        136.67	    12.806
   8.140        120.83	    12.042
   8.160        106.67	    11.314
   8.180        142.50	    13.077
   8.200        150.83	    13.454
   8.220        130.83	    12.530
   8.240        150.00	    13.416
   8.260        146.67	    13.266
   8.280        133.33	    12.649
   8.300        153.33	    13.565
   8.320        137.50	    12.845
   8.340        129.17	    12.450
   8.360        145.83	    13.229
   8.380        170.00	    14.283
   8.400        128.33	    12.410
   8.420        149.17	    13.379
   8.440        169.17	    14.248
   8.460        150.83	    13.454
   8.480        156.67	    13.711
   8.500        175.00	    14.491
   8.520        165.83	    14.107
   8.540        148.33	    13.342
   8.560        170.00	    14.283
   8.580        189.17	    15.067
   8.600        184.17	    14.866
   8.620        199.17	    15.460
   8.640        183.33	    14.832
   8.660        213.33	    16.000
   8.680        235.83	    16.823
   8.700        222.50	    16.340
   8.720        252.50	    17.407
   8.740        271.67	    18.055
   8.760        308.33	    19.235
   8.780        375.83	    21.237
   8.800        532.50	    25.278
   8.820        581.67	    26.420
   8.840        632.50	    27.550
   8.860        697.50	    28.931
   8.880        615.00	    27.166
   8.900        450.83	    23.259
   8.920        355.00	    20.640
   8.940        269.17	    17.972
   8.960        205.00	    15.684
   8.980        179.17	    14.663
   9.000        155.00	    13.638
   9.020        136.67	    12.806
   9.040        151.67	    13.491
   9.060        136.67	    12.806
   9.080        145.00	    13.191
   9.100        136.67	    12.806
   9.120        141.67	    13.038
   9.140        143.33	    13.115
   9.160        132.50	    12.610
   9.180        149.17	    13.379
   9.200        131.67	    12.570
   9.220        127.50	    12.369
   9.240        123.33	    12.166
   9.260         94.17	    10.630
   9.280        123.33	    12.166
   9.300        122.50	    12.124
   9.320        127.50	    12.369
   9.340        134.17	    12.689
   9.360        129.17	    12.450
   9.380        105.83	    11.269
   9.400        135.00	    12.728
   9.420        120.00	    12.000
   9.440        116.67	    11.832
   9.460        117.50	    11.874
   9.480        110.83	    11.533
   9.500         86.67	    10.198
   9.520        103.33	    11.136
   9.540        100.83	    11.000
   9.560        101.67	    11.045
   9.580        105.00	    11.225
   9.600        111.67	    11.576
   9.620        110.00	    11.489
   9.640         98.33	    10.863
   9.660        120.00	    12.000
   9.680        112.50	    11.619
   9.700        102.50	    11.091
   9.720        105.00	    11.225
   9.740        109.17	    11.446
   9.760        107.50	    11.358
   9.780        135.00	    12.728
   9.800        100.83	    11.000
   9.820        111.67	    11.576
   9.840        100.00	    10.954
   9.860         71.67	     9.274
   9.880         94.17	    10.630
   9.900         91.67	    10.488
   9.920        102.50	    11.091
   9.940        101.67	    11.045
   9.960        100.00	    10.954
   9.980         93.33	    10.583
  10.000         95.00	    10.677
  10.020        105.83	    11.269
  10.040        101.67	    11.045
  10.060         91.67	    10.488
  10.080        106.67	    11.314
  10.100         94.17	    10.630
  10.120         95.83	    10.724
  10.140         88.33	    10.296
  10.160         93.33	    10.583
  10.180         90.00	    10.392
  10.200         98.33	    10.863
  10.220         86.67	    10.198
  10.240         79.17	     9.747
  10.260         92.50	    10.536
  10.280         99.17	    10.909
  10.300         99.17	    10.909
  10.320        105.00	    11.225
  10.340         99.17	    10.909
  10.360        105.83	    11.269
  10.380        133.33	    12.649
  10.400        115.00	    11.747
  10.420         98.33	    10.863
  10.440        123.33	    12.166
  10.460        142.50	    13.077
  10.480        155.00	    13.638
  10.500        160.83	    13.892
  10.520        141.67	    13.038
  10.540        128.33	    12.410
  10.560        123.33	    12.166
  10.580        109.17	    11.446
  10.600        100.83	    11.000
  10.620         97.50	    10.817
  10.640         86.67	    10.198
  10.660         85.00	    10.100
  10.680         92.50	    10.536
  10.700         85.00	    10.100
  10.720         92.50	    10.536
  10.740         72.50	     9.327
  10.760        103.33	    11.136
  10.780         98.33	    10.863
  10.800         87.50	    10.247
  10.820         73.33	     9.381
  10.840         81.67	     9.899
  10.860         82.50	     9.950
  10.880        100.83	    11.000
  10.900         89.17	    10.344
  10.920         94.17	    10.630
  10.940         70.83	     9.220
  10.960         83.33	    10.000
  10.980         98.33	    10.863
  11.000         76.67	     9.592
  11.020         85.00	    10.100
  11.040         74.17	     9.434
  11.060         85.00	    10.100
  11.080         84.17	    10.050
  11.100         95.00	    10.677
  11.120         72.50	     9.327
  11.140         70.00	     9.165
  11.160         65.00	     8.832
  11.180         81.67	     9.899
  11.200         66.67	     8.944
  11.220         75.00	     9.487
  11.240         80.83	     9.849
  11.260         75.83	     9.539
  11.280         67.50	     9.000
  11.300         88.33	    10.296
  11.320         85.00	    10.100
  11.340         93.33	    10.583
  11.360         87.50	    10.247
  11.380         79.17	     9.747
  11.400         86.67	    10.198
  11.420         81.67	     9.899
  11.440         90.00	    10.392
  11.460         73.33	     9.381
  11.480         84.17	    10.050
  11.500         86.67	    10.198
  11.520         81.67	     9.899
  11.540         79.17	     9.747
  11.560         80.00	     9.798
  11.580         79.17	     9.747
  11.600         81.67	     9.899
  11.620         75.00	     9.487
  11.640         84.17	    10.050
  11.660         85.83	    10.149
  11.680         77.50	     9.644
  11.700         85.00	    10.100
  11.720         73.33	     9.381
  11.740         79.17	     9.747
  11.760         83.33	    10.000
  11.780         92.50	    10.536
  11.800         84.17	    10.050
  11.820         68.33	     9.055
  11.840         76.67	     9.592
  11.860         71.67	     9.274
  11.880         76.67	     9.592
  11.900         75.00	     9.487
  11.920         80.00	     9.798
  11.940         89.17	    10.344
  11.960         89.17	    10.344
  11.980        116.67	    11.832
  12.000         97.50	    10.817
  12.020        101.67	    11.045
  12.040         99.17	    10.909
  12.060        117.50	    11.874
  12.080        119.17	    11.958
  12.100        132.50	    12.610
  12.120        155.83	    13.675
  12.140        190.00	    15.100
  12.160        214.17	    16.031
  12.180        238.33	    16.912
  12.200        243.33	    17.088
  12.220        234.17	    16.763
  12.240        178.33	    14.629
  12.260        169.17	    14.248
  12.280        136.67	    12.806
  12.300        174.17	    14.457
  12.320        174.17	    14.457
  12.340        194.17	    15.264
  12.360        201.67	    15.556
  12.380        221.67	    16.310
  12.400        284.17	    18.466
  12.420        345.83	    20.372
  12.440        410.00	    22.181
  12.460        478.33	    23.958
  12.480        536.67	    25.377
  12.500        500.00	    24.495
  12.520        417.50	    22.383
  12.540        321.67	    19.647
  12.560        223.33	    16.371
  12.580        165.83	    14.107
  12.600        135.00	    12.728
  12.620        128.33	    12.410
  12.640        117.50	    11.874
  12.660         78.33	     9.695
  12.680         95.83	    10.724
  12.700         74.17	     9.434
  12.720         91.67	    10.488
  12.740         97.50	    10.817
  12.760         74.17	     9.434
  12.780         66.67	     8.944
  12.800         65.00	     8.832
  12.820         92.50	    10.536
  12.840         69.17	     9.110
  12.860         59.17	     8.426
  12.880         64.17	     8.775
  12.900         59.17	     8.426
  12.920         73.33	     9.381
  12.940         75.83	     9.539
  12.960         72.50	     9.327
  12.980         67.50	     9.000
  13.000         68.33	     9.055
  13.020         69.17	     9.110
  13.040         62.50	     8.660
  13.060         64.17	     8.775
  13.080         85.83	    10.149
  13.100         70.00	     9.165
  13.120         74.17	     9.434
  13.140         74.17	     9.434
  13.160         68.33	     9.055
  13.180         57.50	     8.307
  13.200         59.17	     8.426
  13.220         65.83	     8.888
  13.240         80.83	     9.849
  13.260         59.17	     8.426
  13.280         65.00	     8.832
  13.300         63.33	     8.718
  13.320         74.17	     9.434
  13.340         77.50	     9.644
  13.360         63.33	     8.718
  13.380         78.33	     9.695
  13.400         47.50	     7.550
  13.420         71.67	     9.274
  13.440         53.33	     8.000
  13.460         62.50	     8.660
  13.480         66.67	     8.944
  13.500         64.17	     8.775
  13.520         71.67	     9.274
  13.540         76.67	     9.592
  13.560         68.33	     9.055
  13.580         65.00	     8.832
  13.600         65.83	     8.888
  13.620         70.00	     9.165
  13.640         58.33	     8.367
  13.660         62.50	     8.660
  13.680         71.67	     9.274
  13.700         82.50	     9.950
  13.720         79.17	     9.747
  13.740         75.00	     9.487
  13.760         83.33	    10.000
  13.780         81.67	     9.899
  13.800         78.33	     9.695
  13.820         89.17	    10.344
  13.840        105.00	    11.225
  13.860         95.00	    10.677
  13.880         71.67	     9.274
  13.900         80.00	     9.798
  13.920         77.50	     9.644
  13.940         85.83	    10.149
  13.960         75.83	     9.539
  13.980         75.83	     9.539
  14.000         59.17	     8.426
  14.020         68.33	     9.055
  14.040         61.67	     8.602
  14.060         67.50	     9.000
  14.080         66.67	     8.944
  14.100         63.33	     8.718
  14.120         51.67	     7.874
  14.140         65.83	     8.888
  14.160         58.33	     8.367
  14.180         58.33	     8.367
  14.200         59.17	     8.426
  14.220         68.33	     9.055
  14.240         58.33	     8.367
  14.260         61.67	     8.602
  14.280         62.50	     8.660
  14.300         55.83	     8.185
  14.320         74.17	     9.434
  14.340         50.00	     7.746
  14.360         64.17	     8.775
  14.380         51.67	     7.874
  14.400         68.33	     9.055
