
Filename:
	C:\Program Files\Thermo Electron\WinXRD\Datafiles\F_HERMAN\GEO\GG_5_SFT.raw

File Created:
	October 13, 2020 - 10:28 AM

Specimen Id:
	GG5 SFT

Specimen Name:
	

Specimen Description:
	

Comment:
Scan Type: 2Theta Scan
Start Angle: 3 deg.
Stop Angle: 65 deg.
Num Points: 3101
Step Size: 0.02 deg.
Scan Rate: 1.000000
Scan Mode: Continuous
Wavelength: 1.540562
\Kalpha1: 1.540562	\Kalpha2: 1.544390	\Kbeta: 1.392218

Optics:
		Detector:
			 Type: Fixed Slits
		Tube: 
			 Type: Fixed Slits


Datas:
 Pos [deg]       Rate [CPS]      ESD [-]

Range 1 ---> Iteration 1
   3.000        307.50	    19.209
   3.020        335.83	    20.075
   3.040        281.67	    18.385
   3.060        289.17	    18.628
   3.080        310.83	    19.313
   3.100        285.83	    18.520
   3.120        294.17	    18.788
   3.140        266.67	    17.889
   3.160        277.50	    18.248
   3.180        309.17	    19.261
   3.200        298.33	    18.921
   3.220        280.83	    18.358
   3.240        249.17	    17.292
   3.260        274.17	    18.138
   3.280        259.17	    17.635
   3.300        271.67	    18.055
   3.320        270.83	    18.028
   3.340        312.50	    19.365
   3.360        264.17	    17.804
   3.380        260.00	    17.664
   3.400        257.50	    17.578
   3.420        244.17	    17.117
   3.440        256.67	    17.550
   3.460        250.83	    17.349
   3.480        225.00	    16.432
   3.500        260.83	    17.692
   3.520        241.67	    17.029
   3.540        256.67	    17.550
   3.560        245.00	    17.146
   3.580        268.33	    17.944
   3.600        275.00	    18.166
   3.620        236.67	    16.852
   3.640        270.00	    18.000
   3.660        239.17	    16.941
   3.680        263.33	    17.776
   3.700        243.33	    17.088
   3.720        251.67	    17.378
   3.740        234.17	    16.763
   3.760        218.33	    16.186
   3.780        235.83	    16.823
   3.800        246.67	    17.205
   3.820        235.00	    16.793
   3.840        240.83	    17.000
   3.860        230.00	    16.613
   3.880        241.67	    17.029
   3.900        221.67	    16.310
   3.920        191.67	    15.166
   3.940        237.50	    16.882
   3.960        207.50	    15.780
   3.980        215.00	    16.062
   4.000        207.50	    15.780
   4.020        205.83	    15.716
   4.040        205.83	    15.716
   4.060        205.83	    15.716
   4.080        206.67	    15.748
   4.100        230.83	    16.643
   4.120        240.00	    16.971
   4.140        192.50	    15.199
   4.160        220.00	    16.248
   4.180        205.00	    15.684
   4.200        224.17	    16.401
   4.220        200.83	    15.524
   4.240        210.83	    15.906
   4.260        193.33	    15.232
   4.280        192.50	    15.199
   4.300        213.33	    16.000
   4.320        206.67	    15.748
   4.340        188.33	    15.033
   4.360        187.50	    15.000
   4.380        194.17	    15.264
   4.400        211.67	    15.937
   4.420        191.67	    15.166
   4.440        171.67	    14.353
   4.460        198.33	    15.427
   4.480        171.67	    14.353
   4.500        184.17	    14.866
   4.520        174.17	    14.457
   4.540        180.00	    14.697
   4.560        175.83	    14.526
   4.580        174.17	    14.457
   4.600        165.83	    14.107
   4.620        177.50	    14.595
   4.640        190.83	    15.133
   4.660        177.50	    14.595
   4.680        180.00	    14.697
   4.700        166.67	    14.142
   4.720        160.83	    13.892
   4.740        150.00	    13.416
   4.760        171.67	    14.353
   4.780        162.50	    13.964
   4.800        182.50	    14.799
   4.820        143.33	    13.115
   4.840        185.00	    14.900
   4.860        171.67	    14.353
   4.880        160.83	    13.892
   4.900        166.67	    14.142
   4.920        163.33	    14.000
   4.940        165.83	    14.107
   4.960        161.67	    13.928
   4.980        174.17	    14.457
   5.000        164.17	    14.036
   5.020        152.50	    13.528
   5.040        151.67	    13.491
   5.060        145.83	    13.229
   5.080        170.00	    14.283
   5.100        153.33	    13.565
   5.120        168.33	    14.213
   5.140        149.17	    13.379
   5.160        133.33	    12.649
   5.180        133.33	    12.649
   5.200        170.83	    14.318
   5.220        150.83	    13.454
   5.240        144.17	    13.153
   5.260        170.00	    14.283
   5.280        166.67	    14.142
   5.300        168.33	    14.213
   5.320        142.50	    13.077
   5.340        155.83	    13.675
   5.360        138.33	    12.884
   5.380        165.00	    14.071
   5.400        146.67	    13.266
   5.420        130.83	    12.530
   5.440        138.33	    12.884
   5.460        145.83	    13.229
   5.480        144.17	    13.153
   5.500        154.17	    13.601
   5.520        137.50	    12.845
   5.540        120.83	    12.042
   5.560        153.33	    13.565
   5.580        144.17	    13.153
   5.600        154.17	    13.601
   5.620        121.67	    12.083
   5.640        136.67	    12.806
   5.660        127.50	    12.369
   5.680        148.33	    13.342
   5.700        138.33	    12.884
   5.720        140.83	    13.000
   5.740        138.33	    12.884
   5.760        130.00	    12.490
   5.780        149.17	    13.379
   5.800        120.83	    12.042
   5.820        145.83	    13.229
   5.840        129.17	    12.450
   5.860        136.67	    12.806
   5.880        150.83	    13.454
   5.900        138.33	    12.884
   5.920        148.33	    13.342
   5.940        122.50	    12.124
   5.960        120.83	    12.042
   5.980        140.83	    13.000
   6.000        139.17	    12.923
   6.020        152.50	    13.528
   6.040        121.67	    12.083
   6.060        143.33	    13.115
   6.080        146.67	    13.266
   6.100        159.17	    13.820
   6.120        156.67	    13.711
   6.140        144.17	    13.153
   6.160        141.67	    13.038
   6.180        158.33	    13.784
   6.200        165.83	    14.107
   6.220        142.50	    13.077
   6.240        130.83	    12.530
   6.260        142.50	    13.077
   6.280        167.50	    14.177
   6.300        183.33	    14.832
   6.320        160.83	    13.892
   6.340        160.83	    13.892
   6.360        154.17	    13.601
   6.380        150.83	    13.454
   6.400        167.50	    14.177
   6.420        172.50	    14.387
   6.440        170.00	    14.283
   6.460        168.33	    14.213
   6.480        178.33	    14.629
   6.500        184.17	    14.866
   6.520        207.50	    15.780
   6.540        185.83	    14.933
   6.560        220.00	    16.248
   6.580        186.67	    14.967
   6.600        170.00	    14.283
   6.620        168.33	    14.213
   6.640        151.67	    13.491
   6.660        126.67	    12.329
   6.680        136.67	    12.806
   6.700        132.50	    12.610
   6.720        120.83	    12.042
   6.740        140.00	    12.961
   6.760        136.67	    12.806
   6.780        131.67	    12.570
   6.800        107.50	    11.358
   6.820        126.67	    12.329
   6.840        129.17	    12.450
   6.860        111.67	    11.576
   6.880        111.67	    11.576
   6.900        111.67	    11.576
   6.920        115.83	    11.790
   6.940        109.17	    11.446
   6.960        120.00	    12.000
   6.980        132.50	    12.610
   7.000        106.67	    11.314
   7.020        111.67	    11.576
   7.040        122.50	    12.124
   7.060        127.50	    12.369
   7.080        111.67	    11.576
   7.100        104.17	    11.180
   7.120        115.00	    11.747
   7.140        110.00	    11.489
   7.160        109.17	    11.446
   7.180        122.50	    12.124
   7.200        113.33	    11.662
   7.220        106.67	    11.314
   7.240        104.17	    11.180
   7.260         99.17	    10.909
   7.280        108.33	    11.402
   7.300        107.50	    11.358
   7.320        109.17	    11.446
   7.340        125.00	    12.247
   7.360        112.50	    11.619
   7.380        112.50	    11.619
   7.400        106.67	    11.314
   7.420        112.50	    11.619
   7.440        107.50	    11.358
   7.460         94.17	    10.630
   7.480        114.17	    11.705
   7.500         90.00	    10.392
   7.520         99.17	    10.909
   7.540        110.83	    11.533
   7.560         91.67	    10.488
   7.580         97.50	    10.817
   7.600         84.17	    10.050
   7.620        115.83	    11.790
   7.640        115.83	    11.790
   7.660         94.17	    10.630
   7.680        104.17	    11.180
   7.700        114.17	    11.705
   7.720        102.50	    11.091
   7.740         97.50	    10.817
   7.760        107.50	    11.358
   7.780         96.67	    10.770
   7.800        104.17	    11.180
   7.820        101.67	    11.045
   7.840         91.67	    10.488
   7.860        112.50	    11.619
   7.880         98.33	    10.863
   7.900         91.67	    10.488
   7.920         93.33	    10.583
   7.940         81.67	     9.899
   7.960        115.83	    11.790
   7.980        106.67	    11.314
   8.000         89.17	    10.344
   8.020         93.33	    10.583
   8.040        110.00	    11.489
   8.060        120.00	    12.000
   8.080         98.33	    10.863
   8.100        100.83	    11.000
   8.120         99.17	    10.909
   8.140         82.50	     9.950
   8.160        101.67	    11.045
   8.180        110.00	    11.489
   8.200         73.33	     9.381
   8.220         99.17	    10.909
   8.240         90.83	    10.440
   8.260        100.83	    11.000
   8.280        114.17	    11.705
   8.300        101.67	    11.045
   8.320         87.50	    10.247
   8.340         85.83	    10.149
   8.360         99.17	    10.909
   8.380        111.67	    11.576
   8.400         95.00	    10.677
   8.420         99.17	    10.909
   8.440         80.00	     9.798
   8.460         86.67	    10.198
   8.480        106.67	    11.314
   8.500         98.33	    10.863
   8.520        110.00	    11.489
   8.540         98.33	    10.863
   8.560        102.50	    11.091
   8.580        111.67	    11.576
   8.600        104.17	    11.180
   8.620         96.67	    10.770
   8.640         85.83	    10.149
   8.660         89.17	    10.344
   8.680        117.50	    11.874
   8.700        107.50	    11.358
   8.720        105.00	    11.225
   8.740        115.83	    11.790
   8.760        130.00	    12.490
   8.780        127.50	    12.369
   8.800        114.17	    11.705
   8.820        138.33	    12.884
   8.840        137.50	    12.845
   8.860        121.67	    12.083
   8.880        139.17	    12.923
   8.900        144.17	    13.153
   8.920        153.33	    13.565
   8.940        153.33	    13.565
   8.960        179.17	    14.663
   8.980        191.67	    15.166
   9.000        177.50	    14.595
   9.020        235.00	    16.793
   9.040        262.50	    17.748
   9.060        242.50	    17.059
   9.080        302.50	    19.053
   9.100        305.00	    19.131
   9.120        310.83	    19.313
   9.140        350.83	    20.518
   9.160        420.83	    22.472
   9.180        398.33	    21.863
   9.200        431.67	    22.760
   9.220        350.83	    20.518
   9.240        275.83	    18.193
   9.260        215.83	    16.093
   9.280        155.00	    13.638
   9.300        114.17	    11.705
   9.320        120.00	    12.000
   9.340        112.50	    11.619
   9.360         96.67	    10.770
   9.380        124.17	    12.207
   9.400        106.67	    11.314
   9.420         90.00	    10.392
   9.440        108.33	    11.402
   9.460        107.50	    11.358
   9.480        127.50	    12.369
   9.500        101.67	    11.045
   9.520         96.67	    10.770
   9.540         94.17	    10.630
   9.560         89.17	    10.344
   9.580         93.33	    10.583
   9.600         77.50	     9.644
   9.620         79.17	     9.747
   9.640         75.83	     9.539
   9.660         83.33	    10.000
   9.680         85.83	    10.149
   9.700         72.50	     9.327
   9.720         82.50	     9.950
   9.740         89.17	    10.344
   9.760         76.67	     9.592
   9.780         71.67	     9.274
   9.800         89.17	    10.344
   9.820         83.33	    10.000
   9.840         84.17	    10.050
   9.860         81.67	     9.899
   9.880         78.33	     9.695
   9.900         63.33	     8.718
   9.920         62.50	     8.660
   9.940         70.83	     9.220
   9.960         90.83	    10.440
   9.980         69.17	     9.110
  10.000         80.83	     9.849
  10.020         68.33	     9.055
  10.040         58.33	     8.367
  10.060         68.33	     9.055
  10.080         84.17	    10.050
  10.100         75.00	     9.487
  10.120         65.00	     8.832
  10.140         80.83	     9.849
  10.160         60.00	     8.485
  10.180         76.67	     9.592
  10.200         60.00	     8.485
  10.220         70.00	     9.165
  10.240         65.00	     8.832
  10.260         59.17	     8.426
  10.280         63.33	     8.718
  10.300         64.17	     8.775
  10.320         56.67	     8.246
  10.340         55.83	     8.185
  10.360         55.83	     8.185
  10.380         55.83	     8.185
  10.400         55.83	     8.185
  10.420         57.50	     8.307
  10.440         55.83	     8.185
  10.460         64.17	     8.775
  10.480         55.83	     8.185
  10.500         80.00	     9.798
  10.520         70.83	     9.220
  10.540         60.83	     8.544
  10.560         56.67	     8.246
  10.580         63.33	     8.718
  10.600         62.50	     8.660
  10.620         70.83	     9.220
  10.640         59.17	     8.426
  10.660         67.50	     9.000
  10.680         70.83	     9.220
  10.700         65.83	     8.888
  10.720         75.00	     9.487
  10.740         86.67	    10.198
  10.760         82.50	     9.950
  10.780         73.33	     9.381
  10.800         99.17	    10.909
  10.820         90.00	    10.392
  10.840        100.00	    10.954
  10.860         88.33	    10.296
  10.880         80.83	     9.849
  10.900         65.83	     8.888
  10.920         74.17	     9.434
  10.940         50.00	     7.746
  10.960         55.83	     8.185
  10.980         48.33	     7.616
  11.000         41.67	     7.071
  11.020         60.83	     8.544
  11.040         48.33	     7.616
  11.060         55.83	     8.185
  11.080         58.33	     8.367
  11.100         61.67	     8.602
  11.120         49.17	     7.681
  11.140         57.50	     8.307
  11.160         52.50	     7.937
  11.180         46.67	     7.483
  11.200         52.50	     7.937
  11.220         55.00	     8.124
  11.240         57.50	     8.307
  11.260         50.00	     7.746
  11.280         51.67	     7.874
  11.300         53.33	     8.000
  11.320         40.00	     6.928
  11.340         53.33	     8.000
  11.360         74.17	     9.434
  11.380         53.33	     8.000
  11.400         53.33	     8.000
  11.420         45.83	     7.416
  11.440         61.67	     8.602
  11.460         59.17	     8.426
  11.480         64.17	     8.775
  11.500         51.67	     7.874
  11.520         50.00	     7.746
  11.540         54.17	     8.062
  11.560         60.00	     8.485
  11.580         54.17	     8.062
  11.600         53.33	     8.000
  11.620         48.33	     7.616
  11.640         55.00	     8.124
  11.660         56.67	     8.246
  11.680         46.67	     7.483
  11.700         60.00	     8.485
  11.720         46.67	     7.483
  11.740         34.17	     6.403
  11.760         70.83	     9.220
  11.780         46.67	     7.483
  11.800         47.50	     7.550
  11.820         47.50	     7.550
  11.840         60.00	     8.485
  11.860         56.67	     8.246
  11.880         49.17	     7.681
  11.900         55.00	     8.124
  11.920         50.83	     7.810
  11.940         67.50	     9.000
  11.960         44.17	     7.280
  11.980         59.17	     8.426
  12.000         48.33	     7.616
  12.020         44.17	     7.280
  12.040         52.50	     7.937
  12.060         41.67	     7.071
  12.080         47.50	     7.550
  12.100         64.17	     8.775
  12.120         51.67	     7.874
  12.140         60.00	     8.485
  12.160         50.83	     7.810
  12.180         51.67	     7.874
  12.200         52.50	     7.937
  12.220         50.00	     7.746
  12.240         44.17	     7.280
  12.260         67.50	     9.000
  12.280         67.50	     9.000
  12.300         88.33	    10.296
  12.320         51.67	     7.874
  12.340         73.33	     9.381
  12.360         94.17	    10.630
  12.380        101.67	    11.045
  12.400        107.50	    11.358
  12.420        120.00	    12.000
  12.440        151.67	    13.491
  12.460        155.00	    13.638
  12.480        210.00	    15.875
  12.500        222.50	    16.340
  12.520        229.17	    16.583
  12.540        231.67	    16.673
  12.560        190.83	    15.133
  12.580        151.67	    13.491
  12.600        141.67	    13.038
  12.620        120.00	    12.000
  12.640        143.33	    13.115
  12.660        175.00	    14.491
  12.680        180.00	    14.697
  12.700        213.33	    16.000
  12.720        215.83	    16.093
  12.740        214.17	    16.031
  12.760        217.50	    16.155
  12.780        299.17	    18.947
  12.800        308.33	    19.235
  12.820        313.33	    19.391
  12.840        289.17	    18.628
  12.860        280.83	    18.358
  12.880        205.83	    15.716
  12.900        133.33	    12.649
  12.920         95.83	    10.724
  12.940         76.67	     9.592
  12.960         66.67	     8.944
  12.980         58.33	     8.367
  13.000         69.17	     9.110
  13.020         63.33	     8.718
  13.040         61.67	     8.602
  13.060         71.67	     9.274
  13.080         62.50	     8.660
  13.100         48.33	     7.616
  13.120         67.50	     9.000
  13.140         55.00	     8.124
  13.160         40.00	     6.928
  13.180         53.33	     8.000
  13.200         45.00	     7.348
  13.220         40.83	     7.000
  13.240         49.17	     7.681
  13.260         40.83	     7.000
  13.280         46.67	     7.483
  13.300         55.83	     8.185
  13.320         35.83	     6.557
  13.340         52.50	     7.937
  13.360         47.50	     7.550
  13.380         48.33	     7.616
  13.400         35.00	     6.481
  13.420         47.50	     7.550
  13.440         43.33	     7.211
  13.460         43.33	     7.211
  13.480         53.33	     8.000
  13.500         49.17	     7.681
  13.520         45.83	     7.416
  13.540         52.50	     7.937
  13.560         55.00	     8.124
  13.580         50.83	     7.810
  13.600         44.17	     7.280
  13.620         53.33	     8.000
  13.640         51.67	     7.874
  13.660         48.33	     7.616
  13.680         31.67	     6.164
  13.700         52.50	     7.937
  13.720         49.17	     7.681
  13.740         45.00	     7.348
  13.760         41.67	     7.071
  13.780         46.67	     7.483
  13.800         49.17	     7.681
  13.820         50.83	     7.810
  13.840         49.17	     7.681
  13.860         58.33	     8.367
  13.880         48.33	     7.616
  13.900         44.17	     7.280
  13.920         44.17	     7.280
  13.940         33.33	     6.325
  13.960         45.83	     7.416
  13.980         53.33	     8.000
  14.000         45.00	     7.348
  14.020         49.17	     7.681
  14.040         48.33	     7.616
  14.060         49.17	     7.681
  14.080         44.17	     7.280
  14.100         57.50	     8.307
  14.120         64.17	     8.775
  14.140         56.67	     8.246
  14.160         75.00	     9.487
  14.180         81.67	     9.899
  14.200         67.50	     9.000
  14.220         67.50	     9.000
  14.240         50.00	     7.746
  14.260         64.17	     8.775
  14.280         34.17	     6.403
  14.300         46.67	     7.483
  14.320         38.33	     6.782
  14.340         36.67	     6.633
  14.360         38.33	     6.782
  14.380         49.17	     7.681
  14.400         40.83	     7.000
