
Filename:
	C:\Program Files\Thermo Electron\WinXRD\Datafiles\F_HERMAN\GEO\GG_6_SFT.raw

File Created:
	October 13, 2020 - 11:31 AM

Specimen Id:
	GG6 SFT

Specimen Name:
	

Specimen Description:
	

Comment:
Scan Type: 2Theta Scan
Start Angle: 3 deg.
Stop Angle: 65 deg.
Num Points: 3101
Step Size: 0.02 deg.
Scan Rate: 1.000000
Scan Mode: Continuous
Wavelength: 1.540562
\Kalpha1: 1.540562	\Kalpha2: 1.544390	\Kbeta: 1.392218

Optics:
		Detector:
			 Type: Fixed Slits
		Tube: 
			 Type: Fixed Slits


Datas:
 Pos [deg]       Rate [CPS]      ESD [-]

Range 1 ---> Iteration 1
   3.000        370.00	    21.071
   3.020        324.17	    19.723
   3.040        369.17	    21.048
   3.060        325.83	    19.774
   3.080        335.83	    20.075
   3.100        372.50	    21.142
   3.120        362.50	    20.857
   3.140        316.67	    19.494
   3.160        325.00	    19.748
   3.180        311.67	    19.339
   3.200        345.83	    20.372
   3.220        354.17	    20.616
   3.240        369.17	    21.048
   3.260        345.83	    20.372
   3.280        310.83	    19.313
   3.300        362.50	    20.857
   3.320        330.00	    19.900
   3.340        328.33	    19.849
   3.360        343.33	    20.298
   3.380        330.00	    19.900
   3.400        286.67	    18.547
   3.420        314.17	    19.416
   3.440        310.83	    19.313
   3.460        365.83	    20.952
   3.480        295.83	    18.841
   3.500        305.83	    19.157
   3.520        282.50	    18.412
   3.540        301.67	    19.026
   3.560        273.33	    18.111
   3.580        255.83	    17.521
   3.600        300.83	    19.000
   3.620        286.67	    18.547
   3.640        293.33	    18.762
   3.660        269.17	    17.972
   3.680        296.67	    18.868
   3.700        283.33	    18.439
   3.720        265.00	    17.833
   3.740        277.50	    18.248
   3.760        273.33	    18.111
   3.780        260.83	    17.692
   3.800        294.17	    18.788
   3.820        273.33	    18.111
   3.840        280.83	    18.358
   3.860        303.33	    19.079
   3.880        275.83	    18.193
   3.900        276.67	    18.221
   3.920        286.67	    18.547
   3.940        295.00	    18.815
   3.960        279.17	    18.303
   3.980        258.33	    17.607
   4.000        259.17	    17.635
   4.020        233.33	    16.733
   4.040        234.17	    16.763
   4.060        248.33	    17.263
   4.080        236.67	    16.852
   4.100        250.00	    17.321
   4.120        245.00	    17.146
   4.140        240.00	    16.971
   4.160        249.17	    17.292
   4.180        267.50	    17.916
   4.200        257.50	    17.578
   4.220        254.17	    17.464
   4.240        237.50	    16.882
   4.260        224.17	    16.401
   4.280        250.83	    17.349
   4.300        235.00	    16.793
   4.320        239.17	    16.941
   4.340        205.00	    15.684
   4.360        227.50	    16.523
   4.380        240.83	    17.000
   4.400        218.33	    16.186
   4.420        223.33	    16.371
   4.440        229.17	    16.583
   4.460        207.50	    15.780
   4.480        205.00	    15.684
   4.500        205.00	    15.684
   4.520        230.00	    16.613
   4.540        247.50	    17.234
   4.560        223.33	    16.371
   4.580        195.00	    15.297
   4.600        215.83	    16.093
   4.620        216.67	    16.125
   4.640        195.83	    15.330
   4.660        236.67	    16.852
   4.680        217.50	    16.155
   4.700        185.83	    14.933
   4.720        210.00	    15.875
   4.740        195.83	    15.330
   4.760        211.67	    15.937
   4.780        208.33	    15.811
   4.800        189.17	    15.067
   4.820        191.67	    15.166
   4.840        200.00	    15.492
   4.860        198.33	    15.427
   4.880        190.00	    15.100
   4.900        207.50	    15.780
   4.920        200.83	    15.524
   4.940        190.83	    15.133
   4.960        199.17	    15.460
   4.980        182.50	    14.799
   5.000        192.50	    15.199
   5.020        185.83	    14.933
   5.040        182.50	    14.799
   5.060        180.83	    14.731
   5.080        189.17	    15.067
   5.100        190.00	    15.100
   5.120        176.67	    14.560
   5.140        182.50	    14.799
   5.160        170.83	    14.318
   5.180        182.50	    14.799
   5.200        170.83	    14.318
   5.220        184.17	    14.866
   5.240        171.67	    14.353
   5.260        180.83	    14.731
   5.280        187.50	    15.000
   5.300        158.33	    13.784
   5.320        171.67	    14.353
   5.340        194.17	    15.264
   5.360        190.00	    15.100
   5.380        167.50	    14.177
   5.400        172.50	    14.387
   5.420        172.50	    14.387
   5.440        169.17	    14.248
   5.460        189.17	    15.067
   5.480        168.33	    14.213
   5.500        165.83	    14.107
   5.520        165.83	    14.107
   5.540        181.67	    14.765
   5.560        200.00	    15.492
   5.580        176.67	    14.560
   5.600        176.67	    14.560
   5.620        164.17	    14.036
   5.640        140.83	    13.000
   5.660        174.17	    14.457
   5.680        169.17	    14.248
   5.700        170.83	    14.318
   5.720        146.67	    13.266
   5.740        160.00	    13.856
   5.760        166.67	    14.142
   5.780        168.33	    14.213
   5.800        161.67	    13.928
   5.820        169.17	    14.248
   5.840        180.00	    14.697
   5.860        165.83	    14.107
   5.880        201.67	    15.556
   5.900        175.00	    14.491
   5.920        180.83	    14.731
   5.940        170.83	    14.318
   5.960        180.83	    14.731
   5.980        161.67	    13.928
   6.000        158.33	    13.784
   6.020        180.00	    14.697
   6.040        193.33	    15.232
   6.060        176.67	    14.560
   6.080        179.17	    14.663
   6.100        175.83	    14.526
   6.120        190.00	    15.100
   6.140        201.67	    15.556
   6.160        211.67	    15.937
   6.180        204.17	    15.652
   6.200        186.67	    14.967
   6.220        221.67	    16.310
   6.240        206.67	    15.748
   6.260        213.33	    16.000
   6.280        212.50	    15.969
   6.300        208.33	    15.811
   6.320        235.83	    16.823
   6.340        272.50	    18.083
   6.360        281.67	    18.385
   6.380        264.17	    17.804
   6.400        268.33	    17.944
   6.420        250.00	    17.321
   6.440        232.50	    16.703
   6.460        200.83	    15.524
   6.480        182.50	    14.799
   6.500        203.33	    15.620
   6.520        161.67	    13.928
   6.540        140.83	    13.000
   6.560        169.17	    14.248
   6.580        168.33	    14.213
   6.600        166.67	    14.142
   6.620        147.50	    13.304
   6.640        150.83	    13.454
   6.660        155.83	    13.675
   6.680        150.83	    13.454
   6.700        127.50	    12.369
   6.720        144.17	    13.153
   6.740        132.50	    12.610
   6.760        147.50	    13.304
   6.780        131.67	    12.570
   6.800        146.67	    13.266
   6.820        140.00	    12.961
   6.840        140.83	    13.000
   6.860        136.67	    12.806
   6.880        130.83	    12.530
   6.900        149.17	    13.379
   6.920        158.33	    13.784
   6.940        125.83	    12.288
   6.960        150.00	    13.416
   6.980        144.17	    13.153
   7.000        155.00	    13.638
   7.020        125.83	    12.288
   7.040        127.50	    12.369
   7.060        132.50	    12.610
   7.080        140.83	    13.000
   7.100        153.33	    13.565
   7.120        142.50	    13.077
   7.140        135.83	    12.767
   7.160        142.50	    13.077
   7.180        133.33	    12.649
   7.200        128.33	    12.410
   7.220        135.83	    12.767
   7.240        150.00	    13.416
   7.260        134.17	    12.689
   7.280        155.83	    13.675
   7.300        131.67	    12.570
   7.320        105.00	    11.225
   7.340        144.17	    13.153
   7.360        130.00	    12.490
   7.380        149.17	    13.379
   7.400        117.50	    11.874
   7.420        130.00	    12.490
   7.440        114.17	    11.705
   7.460        135.83	    12.767
   7.480        142.50	    13.077
   7.500        122.50	    12.124
   7.520        135.00	    12.728
   7.540        117.50	    11.874
   7.560        122.50	    12.124
   7.580        127.50	    12.369
   7.600        141.67	    13.038
   7.620        130.83	    12.530
   7.640        115.00	    11.747
   7.660        138.33	    12.884
   7.680        119.17	    11.958
   7.700        126.67	    12.329
   7.720        125.00	    12.247
   7.740        127.50	    12.369
   7.760        120.83	    12.042
   7.780        115.00	    11.747
   7.800        136.67	    12.806
   7.820        119.17	    11.958
   7.840        115.00	    11.747
   7.860        118.33	    11.916
   7.880        126.67	    12.329
   7.900        116.67	    11.832
   7.920        136.67	    12.806
   7.940        116.67	    11.832
   7.960        119.17	    11.958
   7.980        139.17	    12.923
   8.000        131.67	    12.570
   8.020        126.67	    12.329
   8.040        121.67	    12.083
   8.060        125.83	    12.288
   8.080        123.33	    12.166
   8.100        140.00	    12.961
   8.120        123.33	    12.166
   8.140        140.00	    12.961
   8.160        126.67	    12.329
   8.180        127.50	    12.369
   8.200        126.67	    12.329
   8.220        125.83	    12.288
   8.240        127.50	    12.369
   8.260        124.17	    12.207
   8.280        143.33	    13.115
   8.300        111.67	    11.576
   8.320        142.50	    13.077
   8.340        145.83	    13.229
   8.360        158.33	    13.784
   8.380        143.33	    13.115
   8.400        140.00	    12.961
   8.420        127.50	    12.369
   8.440        133.33	    12.649
   8.460        140.83	    13.000
   8.480        130.83	    12.530
   8.500        143.33	    13.115
   8.520        143.33	    13.115
   8.540        130.83	    12.530
   8.560        163.33	    14.000
   8.580        171.67	    14.353
   8.600        177.50	    14.595
   8.620        144.17	    13.153
   8.640        165.83	    14.107
   8.660        193.33	    15.232
   8.680        163.33	    14.000
   8.700        164.17	    14.036
   8.720        175.83	    14.526
   8.740        204.17	    15.652
   8.760        190.83	    15.133
   8.780        213.33	    16.000
   8.800        208.33	    15.811
   8.820        275.00	    18.166
   8.840        275.00	    18.166
   8.860        290.00	    18.655
   8.880        301.67	    19.026
   8.900        322.50	    19.672
   8.920        340.00	    20.199
   8.940        361.67	    20.833
   8.960        429.17	    22.694
   8.980        465.00	    23.622
   9.000        554.17	    25.788
   9.020        603.33	    26.907
   9.040        616.67	    27.203
   9.060        586.67	    26.533
   9.080        528.33	    25.179
   9.100        353.33	    20.591
   9.120        261.67	    17.720
   9.140        223.33	    16.371
   9.160        189.17	    15.067
   9.180        147.50	    13.304
   9.200        154.17	    13.601
   9.220        154.17	    13.601
   9.240        155.00	    13.638
   9.260        133.33	    12.649
   9.280        125.83	    12.288
   9.300        131.67	    12.570
   9.320        132.50	    12.610
   9.340        132.50	    12.610
   9.360        130.00	    12.490
   9.380        125.00	    12.247
   9.400        118.33	    11.916
   9.420        110.83	    11.533
   9.440        115.00	    11.747
   9.460        112.50	    11.619
   9.480        121.67	    12.083
   9.500        112.50	    11.619
   9.520        116.67	    11.832
   9.540        102.50	    11.091
   9.560        142.50	    13.077
   9.580        122.50	    12.124
   9.600        145.83	    13.229
   9.620        113.33	    11.662
   9.640        105.83	    11.269
   9.660        100.83	    11.000
   9.680        108.33	    11.402
   9.700        106.67	    11.314
   9.720         94.17	    10.630
   9.740         95.00	    10.677
   9.760         90.00	    10.392
   9.780         85.83	    10.149
   9.800         80.00	     9.798
   9.820         90.00	    10.392
   9.840        100.83	    11.000
   9.860         94.17	    10.630
   9.880         65.83	     8.888
   9.900         87.50	    10.247
   9.920         92.50	    10.536
   9.940         67.50	     9.000
   9.960         89.17	    10.344
   9.980         96.67	    10.770
  10.000         93.33	    10.583
  10.020         98.33	    10.863
  10.040         84.17	    10.050
  10.060         79.17	     9.747
  10.080         99.17	    10.909
  10.100         87.50	    10.247
  10.120         83.33	    10.000
  10.140         77.50	     9.644
  10.160         73.33	     9.381
  10.180         86.67	    10.198
  10.200        100.00	    10.954
  10.220         83.33	    10.000
  10.240         80.00	     9.798
  10.260         74.17	     9.434
  10.280         75.83	     9.539
  10.300         87.50	    10.247
  10.320         90.00	    10.392
  10.340         83.33	    10.000
  10.360         71.67	     9.274
  10.380         66.67	     8.944
  10.400         91.67	    10.488
  10.420         79.17	     9.747
  10.440        102.50	    11.091
  10.460         82.50	     9.950
  10.480         80.00	     9.798
  10.500         87.50	    10.247
  10.520         86.67	    10.198
  10.540         86.67	    10.198
  10.560         78.33	     9.695
  10.580        106.67	    11.314
  10.600        110.83	    11.533
  10.620         95.00	    10.677
  10.640        121.67	    12.083
  10.660        115.00	    11.747
  10.680        139.17	    12.923
  10.700        130.83	    12.530
  10.720         91.67	    10.488
  10.740         97.50	    10.817
  10.760         90.83	    10.440
  10.780         83.33	    10.000
  10.800         75.83	     9.539
  10.820         88.33	    10.296
  10.840         75.00	     9.487
  10.860         71.67	     9.274
  10.880         67.50	     9.000
  10.900         74.17	     9.434
  10.920         62.50	     8.660
  10.940         72.50	     9.327
  10.960         71.67	     9.274
  10.980         75.83	     9.539
  11.000         78.33	     9.695
  11.020         73.33	     9.381
  11.040         90.00	    10.392
  11.060         68.33	     9.055
  11.080         72.50	     9.327
  11.100         57.50	     8.307
  11.120         69.17	     9.110
  11.140         69.17	     9.110
  11.160         70.00	     9.165
  11.180         62.50	     8.660
  11.200         85.83	    10.149
  11.220         69.17	     9.110
  11.240         72.50	     9.327
  11.260         65.00	     8.832
  11.280         73.33	     9.381
  11.300         66.67	     8.944
  11.320         74.17	     9.434
  11.340         62.50	     8.660
  11.360         58.33	     8.367
  11.380         69.17	     9.110
  11.400         80.83	     9.849
  11.420         55.83	     8.185
  11.440         76.67	     9.592
  11.460         64.17	     8.775
  11.480         67.50	     9.000
  11.500         51.67	     7.874
  11.520         70.83	     9.220
  11.540         75.00	     9.487
  11.560         82.50	     9.950
  11.580         72.50	     9.327
  11.600         80.00	     9.798
  11.620         75.00	     9.487
  11.640         63.33	     8.718
  11.660         79.17	     9.747
  11.680         64.17	     8.775
  11.700         68.33	     9.055
  11.720         81.67	     9.899
  11.740         59.17	     8.426
  11.760         95.83	    10.724
  11.780         75.00	     9.487
  11.800         75.00	     9.487
  11.820         65.83	     8.888
  11.840         72.50	     9.327
  11.860         80.00	     9.798
  11.880         78.33	     9.695
  11.900         84.17	    10.050
  11.920         75.83	     9.539
  11.940         87.50	    10.247
  11.960         81.67	     9.899
  11.980         83.33	    10.000
  12.000         74.17	     9.434
  12.020         92.50	    10.536
  12.040         87.50	    10.247
  12.060         82.50	     9.950
  12.080         77.50	     9.644
  12.100         80.00	     9.798
  12.120         99.17	    10.909
  12.140         85.00	    10.100
  12.160        104.17	    11.180
  12.180         83.33	    10.000
  12.200        120.83	    12.042
  12.220        131.67	    12.570
  12.240        137.50	    12.845
  12.260        165.00	    14.071
  12.280        209.17	    15.843
  12.300        285.83	    18.520
  12.320        380.83	    21.378
  12.340        466.67	    23.664
  12.360        490.83	    24.269
  12.380        505.83	    24.637
  12.400        382.50	    21.424
  12.420        312.50	    19.365
  12.440        270.00	    18.000
  12.460        234.17	    16.763
  12.480        214.17	    16.031
  12.500        221.67	    16.310
  12.520        251.67	    17.378
  12.540        257.50	    17.578
  12.560        294.17	    18.788
  12.580        317.50	    19.519
  12.600        368.33	    21.024
  12.620        440.83	    23.000
  12.640        490.83	    24.269
  12.660        494.17	    24.352
  12.680        455.00	    23.367
  12.700        386.67	    21.541
  12.720        288.33	    18.601
  12.740        216.67	    16.125
  12.760        154.17	    13.601
  12.780        140.83	    13.000
  12.800        115.83	    11.790
  12.820        106.67	    11.314
  12.840         83.33	    10.000
  12.860         98.33	    10.863
  12.880         80.00	     9.798
  12.900         80.00	     9.798
  12.920         95.83	    10.724
  12.940         70.00	     9.165
  12.960         77.50	     9.644
  12.980         74.17	     9.434
  13.000         71.67	     9.274
  13.020         62.50	     8.660
  13.040         74.17	     9.434
  13.060         80.83	     9.849
  13.080         66.67	     8.944
  13.100         73.33	     9.381
  13.120         69.17	     9.110
  13.140         73.33	     9.381
  13.160         66.67	     8.944
  13.180         67.50	     9.000
  13.200         68.33	     9.055
  13.220         63.33	     8.718
  13.240         55.00	     8.124
  13.260         54.17	     8.062
  13.280         65.83	     8.888
  13.300         69.17	     9.110
  13.320         50.00	     7.746
  13.340         73.33	     9.381
  13.360         48.33	     7.616
  13.380         58.33	     8.367
  13.400         50.83	     7.810
  13.420         57.50	     8.307
  13.440         55.83	     8.185
  13.460         60.83	     8.544
  13.480         60.83	     8.544
  13.500         54.17	     8.062
  13.520         65.00	     8.832
  13.540         54.17	     8.062
  13.560         66.67	     8.944
  13.580         60.00	     8.485
  13.600         51.67	     7.874
  13.620         50.00	     7.746
  13.640         56.67	     8.246
  13.660         55.83	     8.185
  13.680         59.17	     8.426
  13.700         51.67	     7.874
  13.720         52.50	     7.937
  13.740         60.83	     8.544
  13.760         57.50	     8.307
  13.780         64.17	     8.775
  13.800         64.17	     8.775
  13.820         59.17	     8.426
  13.840         53.33	     8.000
  13.860         60.83	     8.544
  13.880         64.17	     8.775
  13.900         65.83	     8.888
  13.920         50.83	     7.810
  13.940         61.67	     8.602
  13.960         68.33	     9.055
  13.980         85.00	    10.100
  14.000         92.50	    10.536
  14.020         91.67	    10.488
  14.040         91.67	    10.488
  14.060         85.00	    10.100
  14.080         75.83	     9.539
  14.100         65.00	     8.832
  14.120         61.67	     8.602
  14.140         64.17	     8.775
  14.160         67.50	     9.000
  14.180         71.67	     9.274
  14.200         60.83	     8.544
  14.220         58.33	     8.367
  14.240         62.50	     8.660
  14.260         61.67	     8.602
  14.280         42.50	     7.141
  14.300         53.33	     8.000
  14.320         58.33	     8.367
  14.340         47.50	     7.550
  14.360         43.33	     7.211
  14.380         56.67	     8.246
  14.400         45.83	     7.416
