
Filename:
	C:\Program Files\Thermo Electron\WinXRD\Datafiles\F_HERMAN\GEO\GG_7_SFT.raw

File Created:
	October 13, 2020 - 12:33 PM

Specimen Id:
	GG7 SFT

Specimen Name:
	

Specimen Description:
	

Comment:
Scan Type: 2Theta Scan
Start Angle: 3 deg.
Stop Angle: 65 deg.
Num Points: 3101
Step Size: 0.02 deg.
Scan Rate: 1.000000
Scan Mode: Continuous
Wavelength: 1.540562
\Kalpha1: 1.540562	\Kalpha2: 1.544390	\Kbeta: 1.392218

Optics:
		Detector:
			 Type: Fixed Slits
		Tube: 
			 Type: Fixed Slits


Datas:
 Pos [deg]       Rate [CPS]      ESD [-]

Range 1 ---> Iteration 1
   3.000        380.83	    21.378
   3.020        345.00	    20.347
   3.040        345.83	    20.372
   3.060        340.83	    20.224
   3.080        355.83	    20.664
   3.100        329.17	    19.875
   3.120        335.00	    20.050
   3.140        325.00	    19.748
   3.160        332.50	    19.975
   3.180        337.50	    20.125
   3.200        337.50	    20.125
   3.220        317.50	    19.519
   3.240        335.00	    20.050
   3.260        325.83	    19.774
   3.280        332.50	    19.975
   3.300        312.50	    19.365
   3.320        330.83	    19.925
   3.340        310.00	    19.287
   3.360        302.50	    19.053
   3.380        312.50	    19.365
   3.400        300.83	    19.000
   3.420        337.50	    20.125
   3.440        312.50	    19.365
   3.460        270.00	    18.000
   3.480        311.67	    19.339
   3.500        318.33	    19.545
   3.520        285.83	    18.520
   3.540        295.83	    18.841
   3.560        296.67	    18.868
   3.580        254.17	    17.464
   3.600        285.00	    18.493
   3.620        250.00	    17.321
   3.640        255.00	    17.493
   3.660        288.33	    18.601
   3.680        283.33	    18.439
   3.700        250.83	    17.349
   3.720        280.83	    18.358
   3.740        263.33	    17.776
   3.760        260.83	    17.692
   3.780        260.00	    17.664
   3.800        288.33	    18.601
   3.820        248.33	    17.263
   3.840        246.67	    17.205
   3.860        245.00	    17.146
   3.880        235.83	    16.823
   3.900        241.67	    17.029
   3.920        255.83	    17.521
   3.940        245.00	    17.146
   3.960        246.67	    17.205
   3.980        255.00	    17.493
   4.000        242.50	    17.059
   4.020        222.50	    16.340
   4.040        208.33	    15.811
   4.060        250.83	    17.349
   4.080        242.50	    17.059
   4.100        215.83	    16.093
   4.120        223.33	    16.371
   4.140        242.50	    17.059
   4.160        235.00	    16.793
   4.180        255.83	    17.521
   4.200        239.17	    16.941
   4.220        241.67	    17.029
   4.240        237.50	    16.882
   4.260        204.17	    15.652
   4.280        226.67	    16.492
   4.300        212.50	    15.969
   4.320        229.17	    16.583
   4.340        216.67	    16.125
   4.360        200.00	    15.492
   4.380        195.00	    15.297
   4.400        220.00	    16.248
   4.420        225.00	    16.432
   4.440        184.17	    14.866
   4.460        215.83	    16.093
   4.480        216.67	    16.125
   4.500        188.33	    15.033
   4.520        178.33	    14.629
   4.540        215.83	    16.093
   4.560        179.17	    14.663
   4.580        209.17	    15.843
   4.600        205.83	    15.716
   4.620        185.00	    14.900
   4.640        212.50	    15.969
   4.660        183.33	    14.832
   4.680        204.17	    15.652
   4.700        175.00	    14.491
   4.720        195.00	    15.297
   4.740        189.17	    15.067
   4.760        198.33	    15.427
   4.780        171.67	    14.353
   4.800        195.00	    15.297
   4.820        220.00	    16.248
   4.840        175.83	    14.526
   4.860        170.00	    14.283
   4.880        166.67	    14.142
   4.900        179.17	    14.663
   4.920        188.33	    15.033
   4.940        179.17	    14.663
   4.960        175.00	    14.491
   4.980        187.50	    15.000
   5.000        172.50	    14.387
   5.020        189.17	    15.067
   5.040        175.83	    14.526
   5.060        151.67	    13.491
   5.080        180.00	    14.697
   5.100        181.67	    14.765
   5.120        180.00	    14.697
   5.140        152.50	    13.528
   5.160        175.00	    14.491
   5.180        160.00	    13.856
   5.200        171.67	    14.353
   5.220        153.33	    13.565
   5.240        175.83	    14.526
   5.260        155.00	    13.638
   5.280        182.50	    14.799
   5.300        191.67	    15.166
   5.320        160.83	    13.892
   5.340        175.00	    14.491
   5.360        203.33	    15.620
   5.380        158.33	    13.784
   5.400        161.67	    13.928
   5.420        166.67	    14.142
   5.440        160.83	    13.892
   5.460        161.67	    13.928
   5.480        170.83	    14.318
   5.500        158.33	    13.784
   5.520        175.00	    14.491
   5.540        193.33	    15.232
   5.560        166.67	    14.142
   5.580        153.33	    13.565
   5.600        163.33	    14.000
   5.620        179.17	    14.663
   5.640        179.17	    14.663
   5.660        155.83	    13.675
   5.680        171.67	    14.353
   5.700        159.17	    13.820
   5.720        184.17	    14.866
   5.740        170.00	    14.283
   5.760        184.17	    14.866
   5.780        150.00	    13.416
   5.800        170.00	    14.283
   5.820        184.17	    14.866
   5.840        185.83	    14.933
   5.860        187.50	    15.000
   5.880        208.33	    15.811
   5.900        210.83	    15.906
   5.920        197.50	    15.395
   5.940        202.50	    15.588
   5.960        186.67	    14.967
   5.980        205.00	    15.684
   6.000        215.00	    16.062
   6.020        195.83	    15.330
   6.040        209.17	    15.843
   6.060        217.50	    16.155
   6.080        219.17	    16.217
   6.100        232.50	    16.703
   6.120        262.50	    17.748
   6.140        270.83	    18.028
   6.160        270.83	    18.028
   6.180        294.17	    18.788
   6.200        263.33	    17.776
   6.220        236.67	    16.852
   6.240        265.83	    17.861
   6.260        245.83	    17.176
   6.280        240.00	    16.971
   6.300        266.67	    17.889
   6.320        265.83	    17.861
   6.340        249.17	    17.292
   6.360        289.17	    18.628
   6.380        310.00	    19.287
   6.400        295.00	    18.815
   6.420        238.33	    16.912
   6.440        235.83	    16.823
   6.460        202.50	    15.588
   6.480        233.33	    16.733
   6.500        183.33	    14.832
   6.520        201.67	    15.556
   6.540        159.17	    13.820
   6.560        170.00	    14.283
   6.580        177.50	    14.595
   6.600        184.17	    14.866
   6.620        174.17	    14.457
   6.640        180.00	    14.697
   6.660        159.17	    13.820
   6.680        180.00	    14.697
   6.700        170.00	    14.283
   6.720        196.67	    15.362
   6.740        150.00	    13.416
   6.760        182.50	    14.799
   6.780        160.83	    13.892
   6.800        189.17	    15.067
   6.820        170.00	    14.283
   6.840        157.50	    13.748
   6.860        154.17	    13.601
   6.880        159.17	    13.820
   6.900        160.00	    13.856
   6.920        166.67	    14.142
   6.940        168.33	    14.213
   6.960        167.50	    14.177
   6.980        177.50	    14.595
   7.000        180.00	    14.697
   7.020        156.67	    13.711
   7.040        156.67	    13.711
   7.060        167.50	    14.177
   7.080        172.50	    14.387
   7.100        151.67	    13.491
   7.120        154.17	    13.601
   7.140        150.83	    13.454
   7.160        161.67	    13.928
   7.180        119.17	    11.958
   7.200        151.67	    13.491
   7.220        154.17	    13.601
   7.240        128.33	    12.410
   7.260        138.33	    12.884
   7.280        167.50	    14.177
   7.300        170.83	    14.318
   7.320        153.33	    13.565
   7.340        160.00	    13.856
   7.360        151.67	    13.491
   7.380        153.33	    13.565
   7.400        160.83	    13.892
   7.420        162.50	    13.964
   7.440        125.00	    12.247
   7.460        148.33	    13.342
   7.480        142.50	    13.077
   7.500        159.17	    13.820
   7.520        156.67	    13.711
   7.540        150.00	    13.416
   7.560        155.83	    13.675
   7.580        148.33	    13.342
   7.600        142.50	    13.077
   7.620        138.33	    12.884
   7.640        161.67	    13.928
   7.660        145.83	    13.229
   7.680        144.17	    13.153
   7.700        157.50	    13.748
   7.720        128.33	    12.410
   7.740        152.50	    13.528
   7.760        147.50	    13.304
   7.780        155.00	    13.638
   7.800        176.67	    14.560
   7.820        161.67	    13.928
   7.840        150.00	    13.416
   7.860        127.50	    12.369
   7.880        147.50	    13.304
   7.900        170.00	    14.283
   7.920        160.00	    13.856
   7.940        153.33	    13.565
   7.960        155.83	    13.675
   7.980        158.33	    13.784
   8.000        137.50	    12.845
   8.020        150.00	    13.416
   8.040        157.50	    13.748
   8.060        160.83	    13.892
   8.080        143.33	    13.115
   8.100        169.17	    14.248
   8.120        175.00	    14.491
   8.140        161.67	    13.928
   8.160        187.50	    15.000
   8.180        184.17	    14.866
   8.200        180.00	    14.697
   8.220        195.83	    15.330
   8.240        198.33	    15.427
   8.260        203.33	    15.620
   8.280        210.83	    15.906
   8.300        237.50	    16.882
   8.320        225.00	    16.432
   8.340        230.83	    16.643
   8.360        278.33	    18.276
   8.380        296.67	    18.868
   8.400        316.67	    19.494
   8.420        304.17	    19.105
   8.440        353.33	    20.591
   8.460        393.33	    21.726
   8.480        375.83	    21.237
   8.500        391.67	    21.679
   8.520        352.50	    20.567
   8.540        345.00	    20.347
   8.560        251.67	    17.378
   8.580        229.17	    16.583
   8.600        198.33	    15.427
   8.620        212.50	    15.969
   8.640        209.17	    15.843
   8.660        210.00	    15.875
   8.680        218.33	    16.186
   8.700        240.00	    16.971
   8.720        244.17	    17.117
   8.740        244.17	    17.117
   8.760        259.17	    17.635
   8.780        260.00	    17.664
   8.800        299.17	    18.947
   8.820        290.83	    18.682
   8.840        275.83	    18.193
   8.860        335.83	    20.075
   8.880        333.33	    20.000
   8.900        357.50	    20.712
   8.920        425.83	    22.605
   8.940        506.67	    24.658
   8.960        534.17	    25.318
   8.980        681.67	    28.601
   9.000        723.33	    29.462
   9.020        734.17	    29.682
   9.040        738.33	    29.766
   9.060        602.50	    26.889
   9.080        435.00	    22.847
   9.100        318.33	    19.545
   9.120        246.67	    17.205
   9.140        181.67	    14.765
   9.160        175.00	    14.491
   9.180        161.67	    13.928
   9.200        158.33	    13.784
   9.220        160.00	    13.856
   9.240        160.83	    13.892
   9.260        148.33	    13.342
   9.280        133.33	    12.649
   9.300        155.83	    13.675
   9.320        167.50	    14.177
   9.340        147.50	    13.304
   9.360        140.83	    13.000
   9.380        121.67	    12.083
   9.400        113.33	    11.662
   9.420        128.33	    12.410
   9.440        126.67	    12.329
   9.460        111.67	    11.576
   9.480        125.00	    12.247
   9.500        115.00	    11.747
   9.520        121.67	    12.083
   9.540        107.50	    11.358
   9.560        130.83	    12.530
   9.580        118.33	    11.916
   9.600        120.00	    12.000
   9.620        113.33	    11.662
   9.640        124.17	    12.207
   9.660        103.33	    11.136
   9.680        101.67	    11.045
   9.700        100.83	    11.000
   9.720        109.17	    11.446
   9.740         96.67	    10.770
   9.760        116.67	    11.832
   9.780        105.83	    11.269
   9.800         89.17	    10.344
   9.820        115.83	    11.790
   9.840        110.00	    11.489
   9.860         95.83	    10.724
   9.880        104.17	    11.180
   9.900        110.00	    11.489
   9.920        106.67	    11.314
   9.940        107.50	    11.358
   9.960         90.00	    10.392
   9.980        108.33	    11.402
  10.000         96.67	    10.770
  10.020         89.17	    10.344
  10.040         89.17	    10.344
  10.060        102.50	    11.091
  10.080         81.67	     9.899
  10.100        110.00	    11.489
  10.120        100.00	    10.954
  10.140         88.33	    10.296
  10.160         99.17	    10.909
  10.180        117.50	    11.874
  10.200         80.00	     9.798
  10.220         95.00	    10.677
  10.240         84.17	    10.050
  10.260         84.17	    10.050
  10.280         93.33	    10.583
  10.300         79.17	     9.747
  10.320         84.17	    10.050
  10.340         86.67	    10.198
  10.360         86.67	    10.198
  10.380         92.50	    10.536
  10.400         86.67	    10.198
  10.420         91.67	    10.488
  10.440        103.33	    11.136
  10.460         90.83	    10.440
  10.480         76.67	     9.592
  10.500         97.50	    10.817
  10.520         85.00	    10.100
  10.540         99.17	    10.909
  10.560        110.00	    11.489
  10.580        122.50	    12.124
  10.600        125.83	    12.288
  10.620        150.83	    13.454
  10.640        132.50	    12.610
  10.660        143.33	    13.115
  10.680        110.83	    11.533
  10.700        117.50	    11.874
  10.720        111.67	    11.576
  10.740         97.50	    10.817
  10.760         93.33	    10.583
  10.780         81.67	     9.899
  10.800         80.00	     9.798
  10.820         73.33	     9.381
  10.840         93.33	    10.583
  10.860         75.83	     9.539
  10.880         81.67	     9.899
  10.900         77.50	     9.644
  10.920         93.33	    10.583
  10.940         95.83	    10.724
  10.960         69.17	     9.110
  10.980         80.00	     9.798
  11.000         80.00	     9.798
  11.020         60.00	     8.485
  11.040         86.67	    10.198
  11.060         66.67	     8.944
  11.080         75.00	     9.487
  11.100         77.50	     9.644
  11.120         91.67	    10.488
  11.140         78.33	     9.695
  11.160         65.83	     8.888
  11.180        104.17	    11.180
  11.200         75.00	     9.487
  11.220         70.00	     9.165
  11.240         75.00	     9.487
  11.260         71.67	     9.274
  11.280         76.67	     9.592
  11.300         73.33	     9.381
  11.320         73.33	     9.381
  11.340         81.67	     9.899
  11.360         73.33	     9.381
  11.380         73.33	     9.381
  11.400         79.17	     9.747
  11.420         82.50	     9.950
  11.440         72.50	     9.327
  11.460         72.50	     9.327
  11.480         77.50	     9.644
  11.500         76.67	     9.592
  11.520         70.83	     9.220
  11.540         74.17	     9.434
  11.560         88.33	    10.296
  11.580         83.33	    10.000
  11.600         70.83	     9.220
  11.620         87.50	    10.247
  11.640         78.33	     9.695
  11.660         68.33	     9.055
  11.680         87.50	    10.247
  11.700         88.33	    10.296
  11.720         56.67	     8.246
  11.740         74.17	     9.434
  11.760         75.83	     9.539
  11.780         71.67	     9.274
  11.800         82.50	     9.950
  11.820         84.17	    10.050
  11.840         71.67	     9.274
  11.860         85.83	    10.149
  11.880         69.17	     9.110
  11.900         65.00	     8.832
  11.920         82.50	     9.950
  11.940         76.67	     9.592
  11.960         84.17	    10.050
  11.980         72.50	     9.327
  12.000         81.67	     9.899
  12.020         80.00	     9.798
  12.040         91.67	    10.488
  12.060        100.00	    10.954
  12.080         84.17	    10.050
  12.100         89.17	    10.344
  12.120         92.50	    10.536
  12.140        105.00	    11.225
  12.160         89.17	    10.344
  12.180         87.50	    10.247
  12.200         90.00	    10.392
  12.220        127.50	    12.369
  12.240        140.83	    13.000
  12.260        165.00	    14.071
  12.280        181.67	    14.765
  12.300        214.17	    16.031
  12.320        268.33	    17.944
  12.340        335.83	    20.075
  12.360        351.67	    20.543
  12.380        297.50	    18.894
  12.400        253.33	    17.436
  12.420        191.67	    15.166
  12.440        181.67	    14.765
  12.460        203.33	    15.620
  12.480        203.33	    15.620
  12.500        226.67	    16.492
  12.520        245.00	    17.146
  12.540        265.83	    17.861
  12.560        335.83	    20.075
  12.580        368.33	    21.024
  12.600        454.17	    23.345
  12.620        519.17	    24.960
  12.640        599.17	    26.814
  12.660        584.17	    26.476
  12.680        498.33	    24.454
  12.700        328.33	    19.849
  12.720        242.50	    17.059
  12.740        181.67	    14.765
  12.760        124.17	    12.207
  12.780        129.17	    12.450
  12.800         90.00	    10.392
  12.820         94.17	    10.630
  12.840         85.00	    10.100
  12.860         87.50	    10.247
  12.880         90.83	    10.440
  12.900         85.00	    10.100
  12.920         77.50	     9.644
  12.940         66.67	     8.944
  12.960         75.83	     9.539
  12.980         87.50	    10.247
  13.000         75.00	     9.487
  13.020         73.33	     9.381
  13.040         87.50	    10.247
  13.060         69.17	     9.110
  13.080         62.50	     8.660
  13.100         65.00	     8.832
  13.120         50.83	     7.810
  13.140         68.33	     9.055
  13.160         69.17	     9.110
  13.180         68.33	     9.055
  13.200         65.00	     8.832
  13.220         66.67	     8.944
  13.240         53.33	     8.000
  13.260         64.17	     8.775
  13.280         70.83	     9.220
  13.300         63.33	     8.718
  13.320         65.83	     8.888
  13.340         61.67	     8.602
  13.360         65.00	     8.832
  13.380         70.00	     9.165
  13.400         47.50	     7.550
  13.420         61.67	     8.602
  13.440         68.33	     9.055
  13.460         49.17	     7.681
  13.480         66.67	     8.944
  13.500         53.33	     8.000
  13.520         69.17	     9.110
  13.540         60.83	     8.544
  13.560         54.17	     8.062
  13.580         66.67	     8.944
  13.600         60.00	     8.485
  13.620         65.00	     8.832
  13.640         55.00	     8.124
  13.660         61.67	     8.602
  13.680         53.33	     8.000
  13.700         54.17	     8.062
  13.720         50.83	     7.810
  13.740         55.83	     8.185
  13.760         55.00	     8.124
  13.780         80.83	     9.849
  13.800         51.67	     7.874
  13.820         62.50	     8.660
  13.840         64.17	     8.775
  13.860         54.17	     8.062
  13.880         59.17	     8.426
  13.900         72.50	     9.327
  13.920         65.83	     8.888
  13.940         78.33	     9.695
  13.960         82.50	     9.950
  13.980         95.83	    10.724
  14.000         83.33	    10.000
  14.020        103.33	    11.136
  14.040         98.33	    10.863
  14.060         75.83	     9.539
  14.080         66.67	     8.944
  14.100         63.33	     8.718
  14.120         67.50	     9.000
  14.140         55.83	     8.185
  14.160         73.33	     9.381
  14.180         66.67	     8.944
  14.200         61.67	     8.602
  14.220         56.67	     8.246
  14.240         64.17	     8.775
  14.260         60.83	     8.544
  14.280         46.67	     7.483
  14.300         52.50	     7.937
  14.320         45.83	     7.416
  14.340         41.67	     7.071
  14.360         56.67	     8.246
  14.380         55.00	     8.124
  14.400         67.50	     9.000
