
Filename:
	C:\Program Files\Thermo Electron\WinXRD\Datafiles\F_HERMAN\GEO\GG_8_SFT.raw

File Created:
	October 12, 2020 - 05:25 PM

Specimen Id:
	GG8 SFT

Specimen Name:
	

Specimen Description:
	

Comment:
Scan Type: 2Theta Scan
Start Angle: 3 deg.
Stop Angle: 65 deg.
Num Points: 3101
Step Size: 0.02 deg.
Scan Rate: 1.000000
Scan Mode: Continuous
Wavelength: 1.540562
\Kalpha1: 1.540562	\Kalpha2: 1.544390	\Kbeta: 1.392218

Optics:
		Detector:
			 Type: Fixed Slits
		Tube: 
			 Type: Fixed Slits


Datas:
 Pos [deg]       Rate [CPS]      ESD [-]

Range 1 ---> Iteration 1
   3.000        438.33	    22.935
   3.020        472.50	    23.812
   3.040        443.33	    23.065
   3.060        411.67	    22.226
   3.080        420.00	    22.450
   3.100        414.17	    22.293
   3.120        395.00	    21.772
   3.140        416.67	    22.361
   3.160        390.00	    21.633
   3.180        415.83	    22.338
   3.200        410.83	    22.204
   3.220        389.17	    21.610
   3.240        430.00	    22.716
   3.260        410.00	    22.181
   3.280        410.00	    22.181
   3.300        354.17	    20.616
   3.320        392.50	    21.703
   3.340        375.83	    21.237
   3.360        403.33	    22.000
   3.380        391.67	    21.679
   3.400        375.00	    21.213
   3.420        375.00	    21.213
   3.440        370.83	    21.095
   3.460        351.67	    20.543
   3.480        342.50	    20.273
   3.500        383.33	    21.448
   3.520        380.83	    21.378
   3.540        385.83	    21.517
   3.560        357.50	    20.712
   3.580        355.83	    20.664
   3.600        347.50	    20.421
   3.620        361.67	    20.833
   3.640        329.17	    19.875
   3.660        336.67	    20.100
   3.680        323.33	    19.698
   3.700        328.33	    19.849
   3.720        345.00	    20.347
   3.740        351.67	    20.543
   3.760        338.33	    20.149
   3.780        284.17	    18.466
   3.800        347.50	    20.421
   3.820        345.00	    20.347
   3.840        317.50	    19.519
   3.860        348.33	    20.445
   3.880        323.33	    19.698
   3.900        330.00	    19.900
   3.920        342.50	    20.273
   3.940        313.33	    19.391
   3.960        305.00	    19.131
   3.980        366.67	    20.976
   4.000        340.00	    20.199
   4.020        305.00	    19.131
   4.040        321.67	    19.647
   4.060        311.67	    19.339
   4.080        274.17	    18.138
   4.100        302.50	    19.053
   4.120        295.00	    18.815
   4.140        305.00	    19.131
   4.160        288.33	    18.601
   4.180        313.33	    19.391
   4.200        293.33	    18.762
   4.220        299.17	    18.947
   4.240        284.17	    18.466
   4.260        305.83	    19.157
   4.280        278.33	    18.276
   4.300        284.17	    18.466
   4.320        275.00	    18.166
   4.340        272.50	    18.083
   4.360        290.83	    18.682
   4.380        291.67	    18.708
   4.400        295.83	    18.841
   4.420        258.33	    17.607
   4.440        255.83	    17.521
   4.460        282.50	    18.412
   4.480        266.67	    17.889
   4.500        262.50	    17.748
   4.520        248.33	    17.263
   4.540        265.00	    17.833
   4.560        274.17	    18.138
   4.580        253.33	    17.436
   4.600        262.50	    17.748
   4.620        262.50	    17.748
   4.640        254.17	    17.464
   4.660        255.83	    17.521
   4.680        264.17	    17.804
   4.700        245.00	    17.146
   4.720        241.67	    17.029
   4.740        235.00	    16.793
   4.760        247.50	    17.234
   4.780        257.50	    17.578
   4.800        250.00	    17.321
   4.820        231.67	    16.673
   4.840        245.83	    17.176
   4.860        219.17	    16.217
   4.880        238.33	    16.912
   4.900        237.50	    16.882
   4.920        235.00	    16.793
   4.940        240.83	    17.000
   4.960        210.00	    15.875
   4.980        240.83	    17.000
   5.000        224.17	    16.401
   5.020        252.50	    17.407
   5.040        246.67	    17.205
   5.060        238.33	    16.912
   5.080        224.17	    16.401
   5.100        213.33	    16.000
   5.120        216.67	    16.125
   5.140        245.00	    17.146
   5.160        231.67	    16.673
   5.180        233.33	    16.733
   5.200        235.00	    16.793
   5.220        225.00	    16.432
   5.240        235.00	    16.793
   5.260        225.83	    16.462
   5.280        228.33	    16.553
   5.300        229.17	    16.583
   5.320        243.33	    17.088
   5.340        231.67	    16.673
   5.360        210.00	    15.875
   5.380        219.17	    16.217
   5.400        209.17	    15.843
   5.420        206.67	    15.748
   5.440        222.50	    16.340
   5.460        228.33	    16.553
   5.480        205.83	    15.716
   5.500        205.83	    15.716
   5.520        207.50	    15.780
   5.540        227.50	    16.523
   5.560        212.50	    15.969
   5.580        205.83	    15.716
   5.600        191.67	    15.166
   5.620        205.83	    15.716
   5.640        240.83	    17.000
   5.660        215.83	    16.093
   5.680        209.17	    15.843
   5.700        230.83	    16.643
   5.720        219.17	    16.217
   5.740        216.67	    16.125
   5.760        218.33	    16.186
   5.780        211.67	    15.937
   5.800        232.50	    16.703
   5.820        226.67	    16.492
   5.840        245.83	    17.176
   5.860        259.17	    17.635
   5.880        260.00	    17.664
   5.900        247.50	    17.234
   5.920        278.33	    18.276
   5.940        278.33	    18.276
   5.960        266.67	    17.889
   5.980        262.50	    17.748
   6.000        272.50	    18.083
   6.020        295.83	    18.841
   6.040        289.17	    18.628
   6.060        265.83	    17.861
   6.080        314.17	    19.416
   6.100        325.00	    19.748
   6.120        284.17	    18.466
   6.140        303.33	    19.079
   6.160        356.67	    20.688
   6.180        340.00	    20.199
   6.200        362.50	    20.857
   6.220        380.83	    21.378
   6.240        337.50	    20.125
   6.260        300.00	    18.974
   6.280        286.67	    18.547
   6.300        234.17	    16.763
   6.320        217.50	    16.155
   6.340        242.50	    17.059
   6.360        212.50	    15.969
   6.380        201.67	    15.556
   6.400        195.83	    15.330
   6.420        185.00	    14.900
   6.440        228.33	    16.553
   6.460        181.67	    14.765
   6.480        232.50	    16.703
   6.500        220.00	    16.248
   6.520        195.83	    15.330
   6.540        192.50	    15.199
   6.560        186.67	    14.967
   6.580        195.00	    15.297
   6.600        178.33	    14.629
   6.620        199.17	    15.460
   6.640        204.17	    15.652
   6.660        193.33	    15.232
   6.680        176.67	    14.560
   6.700        186.67	    14.967
   6.720        195.00	    15.297
   6.740        180.83	    14.731
   6.760        188.33	    15.033
   6.780        182.50	    14.799
   6.800        200.00	    15.492
   6.820        182.50	    14.799
   6.840        186.67	    14.967
   6.860        171.67	    14.353
   6.880        179.17	    14.663
   6.900        184.17	    14.866
   6.920        198.33	    15.427
   6.940        184.17	    14.866
   6.960        159.17	    13.820
   6.980        198.33	    15.427
   7.000        194.17	    15.264
   7.020        195.83	    15.330
   7.040        177.50	    14.595
   7.060        162.50	    13.964
   7.080        181.67	    14.765
   7.100        170.00	    14.283
   7.120        180.83	    14.731
   7.140        170.83	    14.318
   7.160        151.67	    13.491
   7.180        167.50	    14.177
   7.200        189.17	    15.067
   7.220        162.50	    13.964
   7.240        167.50	    14.177
   7.260        157.50	    13.748
   7.280        165.83	    14.107
   7.300        165.00	    14.071
   7.320        190.83	    15.133
   7.340        167.50	    14.177
   7.360        167.50	    14.177
   7.380        150.83	    13.454
   7.400        160.83	    13.892
   7.420        170.00	    14.283
   7.440        155.00	    13.638
   7.460        174.17	    14.457
   7.480        160.00	    13.856
   7.500        155.00	    13.638
   7.520        156.67	    13.711
   7.540        158.33	    13.784
   7.560        180.83	    14.731
   7.580        159.17	    13.820
   7.600        171.67	    14.353
   7.620        161.67	    13.928
   7.640        160.00	    13.856
   7.660        155.00	    13.638
   7.680        167.50	    14.177
   7.700        166.67	    14.142
   7.720        155.83	    13.675
   7.740        163.33	    14.000
   7.760        148.33	    13.342
   7.780        167.50	    14.177
   7.800        161.67	    13.928
   7.820        136.67	    12.806
   7.840        161.67	    13.928
   7.860        173.33	    14.422
   7.880        172.50	    14.387
   7.900        162.50	    13.964
   7.920        153.33	    13.565
   7.940        143.33	    13.115
   7.960        174.17	    14.457
   7.980        163.33	    14.000
   8.000        160.00	    13.856
   8.020        166.67	    14.142
   8.040        160.00	    13.856
   8.060        150.83	    13.454
   8.080        161.67	    13.928
   8.100        157.50	    13.748
   8.120        158.33	    13.784
   8.140        171.67	    14.353
   8.160        186.67	    14.967
   8.180        173.33	    14.422
   8.200        187.50	    15.000
   8.220        196.67	    15.362
   8.240        166.67	    14.142
   8.260        194.17	    15.264
   8.280        215.00	    16.062
   8.300        206.67	    15.748
   8.320        218.33	    16.186
   8.340        189.17	    15.067
   8.360        210.83	    15.906
   8.380        205.83	    15.716
   8.400        199.17	    15.460
   8.420        205.83	    15.716
   8.440        219.17	    16.217
   8.460        240.83	    17.000
   8.480        247.50	    17.234
   8.500        275.83	    18.193
   8.520        244.17	    17.117
   8.540        275.00	    18.166
   8.560        285.00	    18.493
   8.580        297.50	    18.894
   8.600        320.00	    19.596
   8.620        313.33	    19.391
   8.640        357.50	    20.712
   8.660        381.67	    21.401
   8.680        450.00	    23.238
   8.700        433.33	    22.804
   8.720        493.33	    24.331
   8.740        533.33	    25.298
   8.760        572.50	    26.211
   8.780        695.00	    28.879
   8.800        805.00	    31.081
   8.820        908.33	    33.015
   8.840       1001.67	    34.670
   8.860        894.17	    32.757
   8.880        769.17	    30.381
   8.900        582.50	    26.439
   8.920        399.17	    21.886
   8.940        286.67	    18.547
   8.960        255.83	    17.521
   8.980        230.00	    16.613
   9.000        204.17	    15.652
   9.020        180.83	    14.731
   9.040        185.83	    14.933
   9.060        205.00	    15.684
   9.080        195.83	    15.330
   9.100        168.33	    14.213
   9.120        194.17	    15.264
   9.140        160.00	    13.856
   9.160        163.33	    14.000
   9.180        170.83	    14.318
   9.200        118.33	    11.916
   9.220        147.50	    13.304
   9.240        139.17	    12.923
   9.260        125.00	    12.247
   9.280        118.33	    11.916
   9.300        125.83	    12.288
   9.320        144.17	    13.153
   9.340        157.50	    13.748
   9.360        130.83	    12.530
   9.380        125.00	    12.247
   9.400        165.00	    14.071
   9.420        170.83	    14.318
   9.440        153.33	    13.565
   9.460        165.83	    14.107
   9.480        137.50	    12.845
   9.500        136.67	    12.806
   9.520        138.33	    12.884
   9.540        116.67	    11.832
   9.560        122.50	    12.124
   9.580        119.17	    11.958
   9.600        105.00	    11.225
   9.620        105.83	    11.269
   9.640        126.67	    12.329
   9.660        118.33	    11.916
   9.680        117.50	    11.874
   9.700        108.33	    11.402
   9.720        140.00	    12.961
   9.740        110.83	    11.533
   9.760        101.67	    11.045
   9.780        110.00	    11.489
   9.800        106.67	    11.314
   9.820         99.17	    10.909
   9.840        112.50	    11.619
   9.860        109.17	    11.446
   9.880        112.50	    11.619
   9.900         91.67	    10.488
   9.920         99.17	    10.909
   9.940         85.00	    10.100
   9.960         95.00	    10.677
   9.980        112.50	    11.619
  10.000         96.67	    10.770
  10.020        100.00	    10.954
  10.040        110.83	    11.533
  10.060         94.17	    10.630
  10.080         95.83	    10.724
  10.100        110.83	    11.533
  10.120        101.67	    11.045
  10.140         94.17	    10.630
  10.160         83.33	    10.000
  10.180        117.50	    11.874
  10.200         91.67	    10.488
  10.220         99.17	    10.909
  10.240        104.17	    11.180
  10.260         97.50	    10.817
  10.280        100.00	    10.954
  10.300        101.67	    11.045
  10.320        101.67	    11.045
  10.340        100.83	    11.000
  10.360        125.83	    12.288
  10.380        121.67	    12.083
  10.400        121.67	    12.083
  10.420        134.17	    12.689
  10.440        160.83	    13.892
  10.460        154.17	    13.601
  10.480        170.00	    14.283
  10.500        165.00	    14.071
  10.520        143.33	    13.115
  10.540        145.00	    13.191
  10.560        122.50	    12.124
  10.580        107.50	    11.358
  10.600         96.67	    10.770
  10.620        110.00	    11.489
  10.640        106.67	    11.314
  10.660         90.00	    10.392
  10.680         95.00	    10.677
  10.700        113.33	    11.662
  10.720         86.67	    10.198
  10.740         77.50	     9.644
  10.760         96.67	    10.770
  10.780        102.50	    11.091
  10.800         99.17	    10.909
  10.820         99.17	    10.909
  10.840         82.50	     9.950
  10.860         87.50	    10.247
  10.880         81.67	     9.899
  10.900         84.17	    10.050
  10.920         98.33	    10.863
  10.940        110.83	    11.533
  10.960         92.50	    10.536
  10.980         92.50	    10.536
  11.000         94.17	    10.630
  11.020         90.83	    10.440
  11.040        100.83	    11.000
  11.060         84.17	    10.050
  11.080         93.33	    10.583
  11.100         82.50	     9.950
  11.120         83.33	    10.000
  11.140         86.67	    10.198
  11.160         81.67	     9.899
  11.180         99.17	    10.909
  11.200        102.50	    11.091
  11.220         99.17	    10.909
  11.240        105.83	    11.269
  11.260         91.67	    10.488
  11.280         87.50	    10.247
  11.300         90.83	    10.440
  11.320         80.00	     9.798
  11.340         85.00	    10.100
  11.360         90.83	    10.440
  11.380         91.67	    10.488
  11.400         81.67	     9.899
  11.420         90.00	    10.392
  11.440        108.33	    11.402
  11.460         83.33	    10.000
  11.480        108.33	    11.402
  11.500        103.33	    11.136
  11.520         84.17	    10.050
  11.540         95.00	    10.677
  11.560         93.33	    10.583
  11.580         95.00	    10.677
  11.600         95.83	    10.724
  11.620         95.83	    10.724
  11.640         97.50	    10.817
  11.660         97.50	    10.817
  11.680         88.33	    10.296
  11.700         92.50	    10.536
  11.720        101.67	    11.045
  11.740        105.83	    11.269
  11.760        112.50	    11.619
  11.780        100.83	    11.000
  11.800        104.17	    11.180
  11.820        106.67	    11.314
  11.840         90.83	    10.440
  11.860        124.17	    12.207
  11.880        115.83	    11.790
  11.900         85.83	    10.149
  11.920        121.67	    12.083
  11.940        109.17	    11.446
  11.960        112.50	    11.619
  11.980        128.33	    12.410
  12.000        136.67	    12.806
  12.020        158.33	    13.784
  12.040        165.00	    14.071
  12.060        165.00	    14.071
  12.080        219.17	    16.217
  12.100        294.17	    18.788
  12.120        365.00	    20.928
  12.140        445.00	    23.108
  12.160        512.50	    24.799
  12.180        560.00	    25.923
  12.200        509.17	    24.718
  12.220        435.00	    22.847
  12.240        310.00	    19.287
  12.260        285.83	    18.520
  12.280        251.67	    17.378
  12.300        266.67	    17.889
  12.320        286.67	    18.547
  12.340        300.00	    18.974
  12.360        339.17	    20.174
  12.380        379.17	    21.331
  12.400        445.83	    23.130
  12.420        559.17	    25.904
  12.440        674.17	    28.443
  12.460        700.83	    29.000
  12.480        734.17	    29.682
  12.500        628.33	    27.459
  12.520        442.50	    23.043
  12.540        310.00	    19.287
  12.560        207.50	    15.780
  12.580        150.83	    13.454
  12.600        155.00	    13.638
  12.620        127.50	    12.369
  12.640        103.33	    11.136
  12.660        119.17	    11.958
  12.680        100.83	    11.000
  12.700        103.33	    11.136
  12.720        110.83	    11.533
  12.740         86.67	    10.198
  12.760         89.17	    10.344
  12.780         93.33	    10.583
  12.800         86.67	    10.198
  12.820         90.00	    10.392
  12.840         94.17	    10.630
  12.860         94.17	    10.630
  12.880        101.67	    11.045
  12.900         87.50	    10.247
  12.920         89.17	    10.344
  12.940         88.33	    10.296
  12.960         82.50	     9.950
  12.980         76.67	     9.592
  13.000         80.00	     9.798
  13.020         73.33	     9.381
  13.040         85.00	    10.100
  13.060         91.67	    10.488
  13.080         75.00	     9.487
  13.100         85.83	    10.149
  13.120         65.83	     8.888
  13.140         60.00	     8.485
  13.160         60.83	     8.544
  13.180         90.83	    10.440
  13.200         75.00	     9.487
  13.220         60.00	     8.485
  13.240         81.67	     9.899
  13.260         69.17	     9.110
  13.280         79.17	     9.747
  13.300         75.00	     9.487
  13.320         75.00	     9.487
  13.340         75.83	     9.539
  13.360         75.83	     9.539
  13.380         76.67	     9.592
  13.400         72.50	     9.327
  13.420         67.50	     9.000
  13.440         64.17	     8.775
  13.460         57.50	     8.307
  13.480         64.17	     8.775
  13.500         79.17	     9.747
  13.520         70.00	     9.165
  13.540         83.33	    10.000
  13.560         72.50	     9.327
  13.580         78.33	     9.695
  13.600         75.83	     9.539
  13.620         70.00	     9.165
  13.640         73.33	     9.381
  13.660         66.67	     8.944
  13.680         69.17	     9.110
  13.700         82.50	     9.950
  13.720         73.33	     9.381
  13.740         80.00	     9.798
  13.760         88.33	    10.296
  13.780         93.33	    10.583
  13.800        100.00	    10.954
  13.820        121.67	    12.083
  13.840         98.33	    10.863
  13.860        110.00	    11.489
  13.880         85.00	    10.100
  13.900         83.33	    10.000
  13.920         73.33	     9.381
  13.940         91.67	    10.488
  13.960         82.50	     9.950
  13.980         79.17	     9.747
  14.000         70.00	     9.165
  14.020         65.00	     8.832
  14.040         70.83	     9.220
  14.060         65.83	     8.888
  14.080         57.50	     8.307
  14.100         57.50	     8.307
  14.120         65.00	     8.832
  14.140         65.83	     8.888
  14.160         50.00	     7.746
  14.180         70.83	     9.220
  14.200         79.17	     9.747
  14.220         55.00	     8.124
  14.240         56.67	     8.246
  14.260         51.67	     7.874
  14.280         70.83	     9.220
  14.300         70.00	     9.165
  14.320         60.83	     8.544
  14.340         61.67	     8.602
  14.360         52.50	     7.937
  14.380         69.17	     9.110
  14.400         74.17	     9.434
