
Filename:
	C:\Program Files\Thermo Electron\WinXRD\Datafiles\F_HERMAN\GEO\GG_9_SFT.raw

File Created:
	October 12, 2020 - 06:28 PM

Specimen Id:
	GG_9_SFT

Specimen Name:
	

Specimen Description:
	

Comment:
Scan Type: 2Theta Scan
Start Angle: 3 deg.
Stop Angle: 65 deg.
Num Points: 3101
Step Size: 0.02 deg.
Scan Rate: 1.000000
Scan Mode: Continuous
Wavelength: 1.540562
\Kalpha1: 1.540562	\Kalpha2: 1.544390	\Kbeta: 1.392218

Optics:
		Detector:
			 Type: Fixed Slits
		Tube: 
			 Type: Fixed Slits


Datas:
 Pos [deg]       Rate [CPS]      ESD [-]

Range 1 ---> Iteration 1
   3.000        425.83	    22.605
   3.020        390.83	    21.656
   3.040        438.33	    22.935
   3.060        382.50	    21.424
   3.080        437.50	    22.913
   3.100        409.17	    22.159
   3.120        407.50	    22.113
   3.140        356.67	    20.688
   3.160        363.33	    20.881
   3.180        360.83	    20.809
   3.200        345.83	    20.372
   3.220        370.83	    21.095
   3.240        356.67	    20.688
   3.260        374.17	    21.190
   3.280        365.00	    20.928
   3.300        346.67	    20.396
   3.320        361.67	    20.833
   3.340        361.67	    20.833
   3.360        337.50	    20.125
   3.380        370.00	    21.071
   3.400        351.67	    20.543
   3.420        340.00	    20.199
   3.440        346.67	    20.396
   3.460        346.67	    20.396
   3.480        327.50	    19.824
   3.500        324.17	    19.723
   3.520        335.83	    20.075
   3.540        333.33	    20.000
   3.560        289.17	    18.628
   3.580        311.67	    19.339
   3.600        348.33	    20.445
   3.620        352.50	    20.567
   3.640        310.00	    19.287
   3.660        325.83	    19.774
   3.680        340.00	    20.199
   3.700        294.17	    18.788
   3.720        316.67	    19.494
   3.740        337.50	    20.125
   3.760        319.17	    19.570
   3.780        326.67	    19.799
   3.800        319.17	    19.570
   3.820        320.00	    19.596
   3.840        300.00	    18.974
   3.860        295.83	    18.841
   3.880        300.83	    19.000
   3.900        275.83	    18.193
   3.920        292.50	    18.735
   3.940        300.83	    19.000
   3.960        268.33	    17.944
   3.980        289.17	    18.628
   4.000        258.33	    17.607
   4.020        307.50	    19.209
   4.040        245.00	    17.146
   4.060        274.17	    18.138
   4.080        280.00	    18.330
   4.100        273.33	    18.111
   4.120        280.00	    18.330
   4.140        260.00	    17.664
   4.160        301.67	    19.026
   4.180        271.67	    18.055
   4.200        275.83	    18.193
   4.220        276.67	    18.221
   4.240        268.33	    17.944
   4.260        279.17	    18.303
   4.280        270.83	    18.028
   4.300        281.67	    18.385
   4.320        243.33	    17.088
   4.340        274.17	    18.138
   4.360        250.00	    17.321
   4.380        264.17	    17.804
   4.400        258.33	    17.607
   4.420        271.67	    18.055
   4.440        245.83	    17.176
   4.460        270.00	    18.000
   4.480        245.00	    17.146
   4.500        265.00	    17.833
   4.520        214.17	    16.031
   4.540        235.83	    16.823
   4.560        217.50	    16.155
   4.580        256.67	    17.550
   4.600        241.67	    17.029
   4.620        235.00	    16.793
   4.640        259.17	    17.635
   4.660        249.17	    17.292
   4.680        217.50	    16.155
   4.700        237.50	    16.882
   4.720        205.83	    15.716
   4.740        215.83	    16.093
   4.760        244.17	    17.117
   4.780        213.33	    16.000
   4.800        209.17	    15.843
   4.820        231.67	    16.673
   4.840        217.50	    16.155
   4.860        206.67	    15.748
   4.880        224.17	    16.401
   4.900        222.50	    16.340
   4.920        231.67	    16.673
   4.940        235.00	    16.793
   4.960        213.33	    16.000
   4.980        238.33	    16.912
   5.000        225.83	    16.462
   5.020        200.00	    15.492
   5.040        223.33	    16.371
   5.060        223.33	    16.371
   5.080        235.00	    16.793
   5.100        244.17	    17.117
   5.120        205.83	    15.716
   5.140        220.00	    16.248
   5.160        219.17	    16.217
   5.180        208.33	    15.811
   5.200        211.67	    15.937
   5.220        208.33	    15.811
   5.240        185.00	    14.900
   5.260        205.00	    15.684
   5.280        210.00	    15.875
   5.300        217.50	    16.155
   5.320        200.00	    15.492
   5.340        217.50	    16.155
   5.360        194.17	    15.264
   5.380        175.00	    14.491
   5.400        220.00	    16.248
   5.420        218.33	    16.186
   5.440        213.33	    16.000
   5.460        189.17	    15.067
   5.480        216.67	    16.125
   5.500        212.50	    15.969
   5.520        217.50	    16.155
   5.540        214.17	    16.031
   5.560        210.83	    15.906
   5.580        194.17	    15.264
   5.600        209.17	    15.843
   5.620        220.00	    16.248
   5.640        216.67	    16.125
   5.660        200.83	    15.524
   5.680        196.67	    15.362
   5.700        210.83	    15.906
   5.720        253.33	    17.436
   5.740        210.00	    15.875
   5.760        254.17	    17.464
   5.780        236.67	    16.852
   5.800        246.67	    17.205
   5.820        275.83	    18.193
   5.840        243.33	    17.088
   5.860        258.33	    17.607
   5.880        245.00	    17.146
   5.900        261.67	    17.720
   5.920        279.17	    18.303
   5.940        255.83	    17.521
   5.960        306.67	    19.183
   5.980        305.00	    19.131
   6.000        313.33	    19.391
   6.020        343.33	    20.298
   6.040        329.17	    19.875
   6.060        339.17	    20.174
   6.080        347.50	    20.421
   6.100        314.17	    19.416
   6.120        320.83	    19.621
   6.140        318.33	    19.545
   6.160        310.83	    19.313
   6.180        315.00	    19.442
   6.200        340.83	    20.224
   6.220        352.50	    20.567
   6.240        348.33	    20.445
   6.260        342.50	    20.273
   6.280        358.33	    20.736
   6.300        382.50	    21.424
   6.320        386.67	    21.541
   6.340        369.17	    21.048
   6.360        339.17	    20.174
   6.380        334.17	    20.025
   6.400        322.50	    19.672
   6.420        319.17	    19.570
   6.440        294.17	    18.788
   6.460        265.00	    17.833
   6.480        252.50	    17.407
   6.500        210.83	    15.906
   6.520        210.00	    15.875
   6.540        222.50	    16.340
   6.560        219.17	    16.217
   6.580        213.33	    16.000
   6.600        198.33	    15.427
   6.620        228.33	    16.553
   6.640        216.67	    16.125
   6.660        197.50	    15.395
   6.680        205.00	    15.684
   6.700        200.00	    15.492
   6.720        231.67	    16.673
   6.740        197.50	    15.395
   6.760        187.50	    15.000
   6.780        207.50	    15.780
   6.800        190.00	    15.100
   6.820        209.17	    15.843
   6.840        157.50	    13.748
   6.860        191.67	    15.166
   6.880        205.00	    15.684
   6.900        192.50	    15.199
   6.920        190.00	    15.100
   6.940        199.17	    15.460
   6.960        174.17	    14.457
   6.980        192.50	    15.199
   7.000        197.50	    15.395
   7.020        195.83	    15.330
   7.040        186.67	    14.967
   7.060        200.83	    15.524
   7.080        205.83	    15.716
   7.100        190.83	    15.133
   7.120        198.33	    15.427
   7.140        189.17	    15.067
   7.160        179.17	    14.663
   7.180        189.17	    15.067
   7.200        163.33	    14.000
   7.220        187.50	    15.000
   7.240        179.17	    14.663
   7.260        173.33	    14.422
   7.280        197.50	    15.395
   7.300        156.67	    13.711
   7.320        195.00	    15.297
   7.340        168.33	    14.213
   7.360        172.50	    14.387
   7.380        160.00	    13.856
   7.400        190.83	    15.133
   7.420        195.00	    15.297
   7.440        156.67	    13.711
   7.460        197.50	    15.395
   7.480        190.83	    15.133
   7.500        155.00	    13.638
   7.520        172.50	    14.387
   7.540        178.33	    14.629
   7.560        165.83	    14.107
   7.580        173.33	    14.422
   7.600        173.33	    14.422
   7.620        192.50	    15.199
   7.640        166.67	    14.142
   7.660        160.00	    13.856
   7.680        173.33	    14.422
   7.700        170.00	    14.283
   7.720        149.17	    13.379
   7.740        161.67	    13.928
   7.760        165.00	    14.071
   7.780        172.50	    14.387
   7.800        176.67	    14.560
   7.820        172.50	    14.387
   7.840        181.67	    14.765
   7.860        175.00	    14.491
   7.880        177.50	    14.595
   7.900        192.50	    15.199
   7.920        187.50	    15.000
   7.940        172.50	    14.387
   7.960        185.83	    14.933
   7.980        181.67	    14.765
   8.000        196.67	    15.362
   8.020        200.00	    15.492
   8.040        197.50	    15.395
   8.060        205.00	    15.684
   8.080        206.67	    15.748
   8.100        185.00	    14.900
   8.120        221.67	    16.310
   8.140        202.50	    15.588
   8.160        220.00	    16.248
   8.180        227.50	    16.523
   8.200        216.67	    16.125
   8.220        245.83	    17.176
   8.240        191.67	    15.166
   8.260        231.67	    16.673
   8.280        241.67	    17.029
   8.300        264.17	    17.804
   8.320        238.33	    16.912
   8.340        251.67	    17.378
   8.360        251.67	    17.378
   8.380        254.17	    17.464
   8.400        246.67	    17.205
   8.420        285.83	    18.520
   8.440        270.83	    18.028
   8.460        300.00	    18.974
   8.480        301.67	    19.026
   8.500        344.17	    20.322
   8.520        340.83	    20.224
   8.540        355.83	    20.664
   8.560        366.67	    20.976
   8.580        373.33	    21.166
   8.600        417.50	    22.383
   8.620        455.83	    23.388
   8.640        535.83	    25.357
   8.660        525.83	    25.120
   8.680        593.33	    26.683
   8.700        605.83	    26.963
   8.720        600.00	    26.833
   8.740        617.50	    27.221
   8.760        615.00	    27.166
   8.780        637.50	    27.659
   8.800        617.50	    27.221
   8.820        635.00	    27.604
   8.840        653.33	    28.000
   8.860        723.33	    29.462
   8.880        807.50	    31.129
   8.900        818.33	    31.337
   8.920        983.33	    34.351
   8.940        961.67	    33.971
   8.960        985.00	    34.380
   8.980       1000.83	    34.655
   9.000        903.33	    32.924
   9.020        896.67	    32.802
   9.040        779.17	    30.578
   9.060        693.33	    28.844
   9.080        535.00	    25.338
   9.100        440.00	    22.978
   9.120        370.00	    21.071
   9.140        330.00	    19.900
   9.160        289.17	    18.628
   9.180        240.83	    17.000
   9.200        249.17	    17.292
   9.220        248.33	    17.263
   9.240        240.00	    16.971
   9.260        221.67	    16.310
   9.280        206.67	    15.748
   9.300        210.83	    15.906
   9.320        186.67	    14.967
   9.340        201.67	    15.556
   9.360        186.67	    14.967
   9.380        183.33	    14.832
   9.400        160.00	    13.856
   9.420        180.00	    14.697
   9.440        155.83	    13.675
   9.460        167.50	    14.177
   9.480        153.33	    13.565
   9.500        163.33	    14.000
   9.520        165.83	    14.107
   9.540        160.00	    13.856
   9.560        158.33	    13.784
   9.580        171.67	    14.353
   9.600        158.33	    13.784
   9.620        149.17	    13.379
   9.640        162.50	    13.964
   9.660        117.50	    11.874
   9.680        132.50	    12.610
   9.700        104.17	    11.180
   9.720        122.50	    12.124
   9.740        101.67	    11.045
   9.760        107.50	    11.358
   9.780        120.00	    12.000
   9.800        110.00	    11.489
   9.820        107.50	    11.358
   9.840        100.83	    11.000
   9.860        112.50	    11.619
   9.880        124.17	    12.207
   9.900        120.00	    12.000
   9.920        111.67	    11.576
   9.940         94.17	    10.630
   9.960        112.50	    11.619
   9.980        113.33	    11.662
  10.000         94.17	    10.630
  10.020         93.33	    10.583
  10.040         90.83	    10.440
  10.060        106.67	    11.314
  10.080        124.17	    12.207
  10.100         93.33	    10.583
  10.120        101.67	    11.045
  10.140         95.83	    10.724
  10.160        119.17	    11.958
  10.180        102.50	    11.091
  10.200        100.83	    11.000
  10.220        118.33	    11.916
  10.240         90.00	    10.392
  10.260        100.83	    11.000
  10.280        102.50	    11.091
  10.300        119.17	    11.958
  10.320        103.33	    11.136
  10.340        119.17	    11.958
  10.360        107.50	    11.358
  10.380         92.50	    10.536
  10.400        112.50	    11.619
  10.420        102.50	    11.091
  10.440        120.00	    12.000
  10.460        125.00	    12.247
  10.480        126.67	    12.329
  10.500        113.33	    11.662
  10.520        129.17	    12.450
  10.540        113.33	    11.662
  10.560        131.67	    12.570
  10.580        153.33	    13.565
  10.600        152.50	    13.528
  10.620        142.50	    13.077
  10.640        130.83	    12.530
  10.660        127.50	    12.369
  10.680        143.33	    13.115
  10.700        106.67	    11.314
  10.720        105.00	    11.225
  10.740        110.00	    11.489
  10.760        110.83	    11.533
  10.780        100.00	    10.954
  10.800         77.50	     9.644
  10.820         90.83	    10.440
  10.840        102.50	    11.091
  10.860         89.17	    10.344
  10.880         87.50	    10.247
  10.900         89.17	    10.344
  10.920         88.33	    10.296
  10.940         85.83	    10.149
  10.960         75.83	     9.539
  10.980         90.83	    10.440
  11.000        101.67	    11.045
  11.020         80.00	     9.798
  11.040         90.83	    10.440
  11.060         94.17	    10.630
  11.080         84.17	    10.050
  11.100         88.33	    10.296
  11.120         84.17	    10.050
  11.140         87.50	    10.247
  11.160        101.67	    11.045
  11.180         82.50	     9.950
  11.200         96.67	    10.770
  11.220         93.33	    10.583
  11.240         84.17	    10.050
  11.260         89.17	    10.344
  11.280         90.00	    10.392
  11.300         85.00	    10.100
  11.320         90.83	    10.440
  11.340         78.33	     9.695
  11.360         75.83	     9.539
  11.380        100.00	    10.954
  11.400         83.33	    10.000
  11.420         79.17	     9.747
  11.440        105.83	    11.269
  11.460         75.00	     9.487
  11.480         87.50	    10.247
  11.500         93.33	    10.583
  11.520         86.67	    10.198
  11.540         90.00	    10.392
  11.560         76.67	     9.592
  11.580         95.00	    10.677
  11.600         88.33	    10.296
  11.620         83.33	    10.000
  11.640         81.67	     9.899
  11.660        102.50	    11.091
  11.680        115.00	    11.747
  11.700         88.33	    10.296
  11.720         89.17	    10.344
  11.740        107.50	    11.358
  11.760         84.17	    10.050
  11.780        105.83	    11.269
  11.800        101.67	    11.045
  11.820         83.33	    10.000
  11.840         96.67	    10.770
  11.860        100.00	    10.954
  11.880        100.00	    10.954
  11.900         94.17	    10.630
  11.920        116.67	    11.832
  11.940        115.83	    11.790
  11.960        115.83	    11.790
  11.980        124.17	    12.207
  12.000        150.00	    13.416
  12.020        138.33	    12.884
  12.040        143.33	    13.115
  12.060        148.33	    13.342
  12.080        179.17	    14.663
  12.100        165.00	    14.071
  12.120        178.33	    14.629
  12.140        203.33	    15.620
  12.160        210.83	    15.906
  12.180        250.00	    17.321
  12.200        318.33	    19.545
  12.220        376.67	    21.260
  12.240        443.33	    23.065
  12.260        520.00	    24.980
  12.280        546.67	    25.612
  12.300        615.83	    27.185
  12.320        659.17	    28.125
  12.340        670.83	    28.373
  12.360        600.00	    26.833
  12.380        590.83	    26.627
  12.400        520.00	    24.980
  12.420        496.67	    24.413
  12.440        426.67	    22.627
  12.460        475.83	    23.896
  12.480        536.67	    25.377
  12.500        608.33	    27.019
  12.520        665.83	    28.267
  12.540        760.83	    30.216
  12.560        746.67	    29.933
  12.580        808.33	    31.145
  12.600        790.83	    30.806
  12.620        790.83	    30.806
  12.640        720.83	    29.411
  12.660        652.50	    27.982
  12.680        540.83	    25.475
  12.700        405.83	    22.068
  12.720        303.33	    19.079
  12.740        235.00	    16.793
  12.760        197.50	    15.395
  12.780        163.33	    14.000
  12.800        148.33	    13.342
  12.820        146.67	    13.266
  12.840        124.17	    12.207
  12.860         94.17	    10.630
  12.880        122.50	    12.124
  12.900        100.00	    10.954
  12.920        115.83	    11.790
  12.940        100.83	    11.000
  12.960         98.33	    10.863
  12.980         94.17	    10.630
  13.000         93.33	    10.583
  13.020         78.33	     9.695
  13.040         91.67	    10.488
  13.060         72.50	     9.327
  13.080         80.83	     9.849
  13.100         88.33	    10.296
  13.120         75.00	     9.487
  13.140         78.33	     9.695
  13.160         80.83	     9.849
  13.180         78.33	     9.695
  13.200         66.67	     8.944
  13.220         60.83	     8.544
  13.240         79.17	     9.747
  13.260         64.17	     8.775
  13.280         66.67	     8.944
  13.300         75.00	     9.487
  13.320         82.50	     9.950
  13.340         77.50	     9.644
  13.360         63.33	     8.718
  13.380         88.33	    10.296
  13.400         55.83	     8.185
  13.420         77.50	     9.644
  13.440         67.50	     9.000
  13.460         75.00	     9.487
  13.480         73.33	     9.381
  13.500         86.67	    10.198
  13.520         71.67	     9.274
  13.540         77.50	     9.644
  13.560         77.50	     9.644
  13.580         70.00	     9.165
  13.600         63.33	     8.718
  13.620         60.83	     8.544
  13.640         62.50	     8.660
  13.660         76.67	     9.592
  13.680         71.67	     9.274
  13.700         74.17	     9.434
  13.720         65.83	     8.888
  13.740         85.00	    10.100
  13.760         84.17	    10.050
  13.780         74.17	     9.434
  13.800         84.17	    10.050
  13.820         85.83	    10.149
  13.840         77.50	     9.644
  13.860         86.67	    10.198
  13.880         78.33	     9.695
  13.900         87.50	    10.247
  13.920         96.67	    10.770
  13.940         93.33	    10.583
  13.960         93.33	    10.583
  13.980         95.83	    10.724
  14.000         89.17	    10.344
  14.020         98.33	    10.863
  14.040         80.83	     9.849
  14.060         70.83	     9.220
  14.080         60.83	     8.544
  14.100         53.33	     8.000
  14.120         68.33	     9.055
  14.140         75.83	     9.539
  14.160         70.00	     9.165
  14.180         71.67	     9.274
  14.200         59.17	     8.426
  14.220         54.17	     8.062
  14.240         73.33	     9.381
  14.260         65.83	     8.888
  14.280         59.17	     8.426
  14.300         68.33	     9.055
  14.320         62.50	     8.660
  14.340         65.00	     8.832
  14.360         49.17	     7.681
  14.380         66.67	     8.944
  14.400         53.33	     8.000
